Focus Mode,Read Mode,Exposure Time (sec),Number of Frames,Start Y,End Y,Date,Time,Position (microns)
Single Acquisition,Spectrum,20.000000,3,105,125,2/11/2021,5:55:07 PM,0.000000,0.000000,200.010000,

1303.000,1299.000,1301.000
1305.000,1286.000,1287.000
1298.000,1284.000,1286.000
1299.000,1290.000,1293.000
1288.000,1287.000,1291.000
1295.000,1299.000,1283.000
1294.000,1293.000,1289.000
1295.000,1296.000,1292.000
1301.000,1291.000,1284.000
1288.000,1290.000,1297.000
1295.000,1284.000,1290.000
1293.000,1286.000,1285.000
1291.000,1286.000,1283.000
1291.000,1294.000,1286.000
1294.000,1301.000,1292.000
1295.000,1292.000,1287.000
1288.000,1298.000,1282.000
1291.000,1295.000,1293.000
1294.000,1297.000,1300.000
1301.000,1301.000,1294.000
1299.000,1297.000,1295.000
1299.000,1299.000,1307.000
1290.000,1306.000,1299.000
1299.000,1306.000,1306.000
1304.000,1302.000,1306.000
1307.000,1320.000,1295.000
1300.000,1317.000,1305.000
1307.000,1309.000,1313.000
1315.000,1316.000,1307.000
1315.000,1321.000,1315.000
1315.000,1321.000,1319.000
1309.000,1324.000,1321.000
1323.000,1335.000,1327.000
1334.000,1328.000,1326.000
1329.000,1337.000,1342.000
1333.000,1327.000,1329.000
1345.000,1337.000,1343.000
1347.000,1350.000,1341.000
1346.000,1349.000,1345.000
1362.000,1342.000,1350.000
1361.000,1361.000,1359.000
1356.000,1364.000,1356.000
1357.000,1380.000,1362.000
1372.000,1379.000,1369.000
1392.000,1381.000,1378.000
1388.000,1388.000,1371.000
1395.000,2730.000,1400.000
1412.000,4825.000,1402.000
1413.000,4466.000,1391.000
1411.000,1419.000,1416.000
1439.000,1428.000,1419.000
1430.000,1435.000,1439.000
1455.000,1445.000,1440.000
1449.000,1441.000,1451.000
1454.000,1447.000,1450.000
1472.000,1464.000,1453.000
1490.000,1469.000,1476.000
1483.000,1475.000,1464.000
1487.000,1474.000,1467.000
1483.000,1480.000,1465.000
1477.000,1475.000,1476.000
1497.000,1487.000,1479.000
1495.000,1493.000,1478.000
1483.000,1471.000,1493.000
1466.000,1483.000,1481.000
1483.000,1489.000,1499.000
1494.000,1507.000,1470.000
1491.000,1507.000,1518.000
1511.000,1533.000,1529.000
1532.000,1561.000,1544.000
1582.000,1563.000,1548.000
1588.000,1612.000,1610.000
1650.000,1644.000,1632.000
1676.000,1678.000,1659.000
1712.000,1718.000,1705.000
1741.000,1744.000,1705.000
1747.000,1759.000,1747.000
1754.000,1788.000,1751.000
1746.000,1777.000,1766.000
1758.000,1793.000,1786.000
1787.000,1820.000,1784.000
1796.000,1829.000,1784.000
1805.000,1803.000,1762.000
1804.000,1823.000,1785.000
1797.000,1822.000,1823.000
1826.000,1826.000,1809.000
1858.000,1843.000,1846.000
1832.000,1861.000,1819.000
1878.000,1838.000,1815.000
1871.000,1869.000,1842.000
1865.000,1896.000,1862.000
1873.000,1922.000,1880.000
1902.000,1965.000,1904.000
1936.000,1959.000,1919.000
1976.000,1988.000,1962.000
2005.000,2066.000,2000.000
2082.000,2093.000,2062.000
2129.000,2176.000,2132.000
2222.000,2284.000,2206.000
2315.000,2329.000,2302.000
2403.000,2500.000,2436.000
2522.000,2617.000,2541.000
2634.000,2769.000,2632.000
2789.000,2874.000,2825.000
2842.000,2980.000,2848.000
2912.000,3044.000,2955.000
2987.000,3076.000,2941.000
2992.000,3050.000,2981.000
3001.000,3094.000,3014.000
3027.000,3135.000,3037.000
2965.000,3052.000,2977.000
3007.000,3106.000,3008.000
2965.000,2975.000,2920.000
2937.000,2974.000,2919.000
2936.000,3014.000,2905.000
2965.000,3031.000,2960.000
3082.000,3091.000,3100.000
3185.000,3257.000,3193.000
3382.000,3415.000,3348.000
3730.000,3765.000,3707.000
4265.000,4411.000,4327.000
5445.000,5532.000,5508.000
8288.000,8266.000,8719.000
17045.000,17054.000,18073.000
61960.000,61934.000,62009.000
62255.000,62254.000,62248.000
62176.000,62183.000,62174.000
62108.000,62112.000,62106.000
62120.000,62124.000,62123.000
62120.000,62120.000,62119.000
62094.000,62098.000,62091.000
62089.000,62093.000,62091.000
62095.000,62094.000,62097.000
62087.000,62091.000,62093.000
62081.000,62082.000,62078.000
62090.000,62084.000,62086.000
62088.000,62088.000,62085.000
62085.000,62085.000,62083.000
62082.000,62080.000,62079.000
62083.000,62081.000,62081.000
62075.000,62078.000,62079.000
62078.000,62080.000,62081.000
62078.000,62081.000,62079.000
62078.000,62080.000,62079.000
62077.000,62080.000,62080.000
62074.000,62077.000,62076.000
62075.000,62078.000,62081.000
62080.000,62079.000,62078.000
62079.000,62079.000,62078.000
62073.000,62077.000,62074.000
62079.000,62080.000,62080.000
62076.000,62082.000,62084.000
62078.000,62072.000,62078.000
62080.000,62076.000,62073.000
62076.000,62073.000,62077.000
62077.000,62078.000,62079.000
62080.000,62080.000,62082.000
62075.000,62079.000,62074.000
62074.000,62082.000,62076.000
62075.000,62074.000,62072.000
62079.000,62075.000,62078.000
62078.000,62075.000,62077.000
62070.000,62078.000,62079.000
62079.000,62076.000,62075.000
62079.000,62074.000,62075.000
62077.000,62081.000,62078.000
62076.000,62078.000,62079.000
62075.000,62076.000,62073.000
62081.000,62077.000,62072.000
62074.000,62077.000,62077.000
62076.000,62076.000,62078.000
62078.000,62076.000,62080.000
62072.000,62074.000,62081.000
62082.000,62081.000,62086.000
62077.000,62085.000,62079.000
62080.000,62086.000,62085.000
62100.000,62104.000,62101.000
62117.000,62043.000,62091.000
2483.000,1690.000,1741.000
1558.000,1564.000,1574.000
1549.000,1540.000,1529.000
1525.000,1536.000,1542.000
1534.000,1528.000,1523.000
1502.000,1499.000,1489.000
1490.000,1504.000,1495.000
1476.000,1467.000,1489.000
1471.000,1467.000,1478.000
1467.000,1472.000,1466.000
1455.000,1459.000,1466.000
1462.000,1451.000,1449.000
1459.000,1431.000,1462.000
1445.000,1452.000,1440.000
1425.000,1454.000,1433.000
1425.000,1428.000,1418.000
1436.000,1425.000,1428.000
1423.000,1424.000,1434.000
1412.000,1416.000,1416.000
1406.000,1402.000,1416.000
1415.000,1401.000,1415.000
1405.000,1391.000,1417.000
1401.000,1392.000,1417.000
1405.000,1402.000,1400.000
1401.000,1416.000,1395.000
1394.000,1398.000,1412.000
1394.000,1402.000,1402.000
1407.000,1400.000,1399.000
1378.000,1383.000,1395.000
1398.000,1375.000,1381.000
1381.000,1381.000,1379.000
1362.000,1365.000,1374.000
1385.000,1374.000,1369.000
1379.000,1366.000,1375.000
1375.000,1358.000,1373.000
1364.000,1371.000,1364.000
1360.000,1360.000,1373.000
1349.000,1360.000,1347.000
1359.000,1346.000,1355.000
1356.000,1351.000,1351.000
1358.000,1348.000,1356.000
1355.000,1342.000,1346.000
1336.000,1348.000,1345.000
1337.000,1350.000,1340.000
1342.000,1332.000,1345.000
1350.000,1341.000,1337.000
1343.000,1331.000,1344.000
1334.000,1335.000,1335.000
1336.000,1341.000,1338.000
1334.000,1346.000,1336.000
1340.000,1328.000,1332.000
1323.000,1331.000,1332.000
1331.000,1327.000,1327.000
1327.000,1331.000,1334.000
1323.000,1329.000,1320.000
1330.000,1325.000,1314.000
1329.000,1318.000,1324.000
1323.000,1318.000,1324.000
1316.000,1322.000,1323.000
1318.000,1306.000,1324.000
1323.000,1327.000,1328.000
1315.000,1324.000,1328.000
1327.000,1309.000,1312.000
1315.000,1318.000,1324.000
1312.000,1323.000,1324.000
1325.000,1308.000,1319.000
1316.000,1315.000,1321.000
1312.000,1316.000,1309.000
1313.000,1320.000,1307.000
1317.000,1317.000,1319.000
1305.000,1318.000,1307.000
1304.000,1305.000,1311.000
1302.000,1309.000,1301.000
1306.000,1304.000,1307.000
1300.000,1303.000,1307.000
1298.000,1304.000,1309.000
1309.000,1299.000,1305.000
1306.000,1304.000,1310.000
1295.000,1305.000,1297.000
1302.000,1302.000,1310.000
1301.000,1303.000,1305.000
1291.000,1295.000,1298.000
1297.000,1302.000,1292.000
1305.000,1288.000,1303.000
1296.000,1302.000,1303.000
1303.000,1289.000,1299.000
1305.000,1300.000,1293.000
1290.000,1296.000,1302.000
1304.000,1294.000,1286.000
1299.000,1295.000,1290.000
1289.000,1294.000,1299.000
1302.000,1299.000,1309.000
1293.000,1301.000,1285.000
1291.000,1292.000,1293.000
1294.000,1304.000,1298.000
1297.000,1301.000,1289.000
1292.000,1290.000,1295.000
1302.000,1299.000,1305.000
1292.000,1290.000,1294.000
1302.000,1299.000,1298.000
1301.000,1301.000,1300.000
1299.000,1303.000,1302.000
1293.000,1311.000,1298.000
1297.000,1294.000,1300.000
1302.000,1302.000,1303.000
1299.000,1305.000,1309.000
1304.000,1311.000,1300.000
1316.000,1311.000,1306.000
1315.000,1316.000,1311.000
1326.000,1325.000,1314.000
1321.000,1334.000,1311.000
1334.000,1329.000,1325.000
1337.000,1344.000,1344.000
1351.000,1341.000,1341.000
1351.000,1355.000,1350.000
1375.000,1371.000,1364.000
1386.000,1372.000,1384.000
1399.000,1391.000,1389.000
1416.000,1406.000,1407.000
1435.000,1436.000,1439.000
1482.000,1471.000,1464.000
1507.000,1497.000,1494.000
1526.000,1532.000,1550.000
1576.000,1571.000,1553.000
1639.000,1614.000,1624.000
1688.000,1696.000,1665.000
1750.000,1740.000,1721.000
1850.000,1839.000,1828.000
1950.000,1925.000,1882.000
2024.000,1998.000,2024.000
2166.000,2120.000,2134.000
2347.000,2306.000,2296.000
2544.000,2489.000,2471.000
2711.000,2717.000,2693.000
3035.000,2927.000,2932.000
3276.000,3228.000,3150.000
3594.000,3509.000,3490.000
3917.000,3836.000,3800.000
4239.000,4197.000,4204.000
4653.000,4557.000,4608.000
5058.000,5046.000,4972.000
5482.000,5314.000,5328.000
5931.000,5804.000,5864.000
6387.000,6227.000,6161.000
6769.000,6656.000,6609.000
7045.000,6968.000,6947.000
7395.000,7204.000,7191.000
7721.000,7554.000,7434.000
7916.000,7714.000,7711.000
8088.000,7975.000,7900.000
8267.000,7971.000,7971.000
8299.000,8149.000,8082.000
8259.000,8141.000,8147.000
8439.000,8346.000,8172.000
8396.000,8286.000,8144.000
8500.000,8316.000,8254.000
8524.000,8249.000,8364.000
8430.000,8320.000,8237.000
8493.000,8335.000,8215.000
8485.000,8370.000,8207.000
8465.000,8355.000,8290.000
8480.000,8271.000,8157.000
8428.000,8257.000,8275.000
8413.000,8243.000,8259.000
8488.000,8206.000,8280.000
8440.000,8273.000,8269.000
8451.000,8296.000,8249.000
8521.000,8266.000,8265.000
8396.000,8263.000,8331.000
8450.000,8240.000,8234.000
8527.000,8316.000,8389.000
8527.000,8340.000,8379.000
8524.000,8270.000,8284.000
8459.000,8325.000,8291.000
8435.000,8268.000,8146.000
8485.000,8261.000,8262.000
8456.000,8400.000,8323.000
8535.000,8400.000,8321.000
8463.000,8319.000,8262.000
8456.000,8257.000,8255.000
8506.000,8297.000,8310.000
8422.000,8254.000,8286.000
8530.000,8305.000,8302.000
8586.000,8298.000,8251.000
8448.000,8376.000,8255.000
8499.000,8297.000,8284.000
8492.000,8323.000,8320.000
8547.000,8266.000,8313.000
8492.000,8372.000,8261.000
8491.000,8249.000,8240.000
8520.000,8359.000,8219.000
8506.000,8430.000,8267.000
8547.000,8276.000,8328.000
8452.000,8453.000,8386.000
8572.000,8418.000,8398.000
8579.000,8419.000,8322.000
8604.000,8313.000,8403.000
8609.000,8272.000,8333.000
8730.000,8400.000,8427.000
8627.000,8427.000,8454.000
8600.000,8468.000,8390.000
8740.000,8490.000,8430.000
8781.000,8557.000,8499.000
8739.000,8550.000,8512.000
8738.000,8554.000,8522.000
8749.000,8601.000,8511.000
8716.000,8584.000,8558.000
8758.000,8604.000,8662.000
8795.000,8492.000,8577.000
8803.000,8596.000,8630.000
8801.000,8523.000,8562.000
8781.000,8641.000,8593.000
8851.000,8533.000,8557.000
8856.000,8524.000,8612.000
8857.000,8568.000,8578.000
8855.000,8646.000,8667.000
8901.000,8609.000,8627.000
8937.000,8644.000,8690.000
8853.000,8678.000,8677.000
8962.000,8705.000,8651.000
8816.000,8723.000,8672.000
8933.000,8756.000,8702.000
8914.000,8703.000,8744.000
8838.000,8601.000,8694.000
8865.000,8625.000,8626.000
8875.000,8714.000,8673.000
8848.000,8644.000,8635.000
8961.000,8671.000,8767.000
8903.000,8674.000,8588.000
8912.000,8724.000,8645.000
8924.000,8661.000,8584.000
8903.000,8753.000,8661.000
8919.000,8733.000,8627.000
8937.000,8730.000,8682.000
8973.000,8819.000,8741.000
8913.000,8793.000,8764.000
8910.000,8693.000,8564.000
8892.000,8748.000,8645.000
8993.000,8771.000,8686.000
8916.000,8840.000,8642.000
8960.000,8637.000,8727.000
8941.000,8726.000,8699.000
8967.000,8802.000,8695.000
9043.000,8790.000,8669.000
8891.000,8785.000,8759.000
8975.000,8793.000,8783.000
9054.000,8853.000,8703.000
9066.000,8881.000,8815.000
9009.000,8859.000,8761.000
9062.000,8851.000,8872.000
8995.000,8872.000,8832.000
9025.000,8886.000,8871.000
9008.000,8986.000,8865.000
9114.000,8931.000,8935.000
9151.000,8961.000,8922.000
9287.000,9061.000,8857.000
9118.000,9000.000,8999.000
9274.000,9031.000,8949.000
9217.000,8971.000,9057.000
9211.000,8935.000,8904.000
9142.000,9035.000,8967.000
9100.000,8951.000,8935.000
9276.000,8973.000,8970.000
9264.000,8999.000,8979.000
9198.000,8969.000,8839.000
9208.000,9054.000,9027.000
9157.000,9098.000,9006.000
9135.000,8993.000,8972.000
9264.000,8993.000,9000.000
9203.000,9071.000,9011.000
9242.000,9001.000,8938.000
9220.000,9098.000,8924.000
9304.000,9006.000,8988.000
9234.000,9102.000,9054.000
9307.000,9067.000,8978.000
9308.000,9032.000,8950.000
9252.000,9007.000,8906.000
9198.000,8986.000,9068.000
9193.000,8925.000,8990.000
9230.000,9084.000,9019.000
9124.000,8975.000,8972.000
9294.000,9088.000,8999.000
9145.000,9029.000,8930.000
9277.000,9078.000,8916.000
9184.000,9059.000,9010.000
9309.000,9019.000,9058.000
9363.000,9093.000,8964.000
9128.000,9051.000,9027.000
9167.000,8992.000,9079.000
9210.000,9056.000,9029.000
9133.000,9036.000,8987.000
9203.000,9102.000,8946.000
9232.000,9059.000,8994.000
9276.000,9085.000,9059.000
9265.000,9030.000,9002.000
9287.000,8986.000,9034.000
9208.000,9028.000,8946.000
9270.000,9101.000,9172.000
9288.000,8958.000,9081.000
9247.000,9056.000,9100.000
9351.000,9033.000,9066.000
9294.000,9154.000,9094.000
9284.000,9149.000,9095.000
9283.000,9131.000,9041.000
9325.000,9099.000,9057.000
9362.000,9086.000,9075.000
9379.000,9136.000,9148.000
9355.000,9206.000,9149.000
9298.000,9078.000,9137.000
9392.000,9110.000,9008.000
9293.000,9054.000,9020.000
9347.000,9136.000,9065.000
9435.000,9226.000,9130.000
9387.000,9152.000,9073.000
9361.000,9198.000,9142.000
9451.000,9251.000,9237.000
9378.000,9214.000,9152.000
9422.000,9200.000,9195.000
9431.000,9230.000,9237.000
9383.000,9189.000,9225.000
9493.000,9305.000,9219.000
9436.000,9178.000,9203.000
9480.000,9301.000,9268.000
9426.000,9223.000,9232.000
9450.000,9328.000,9222.000
9380.000,9228.000,9340.000
9466.000,9254.000,9258.000
9521.000,9335.000,9253.000
9329.000,9260.000,9269.000
9375.000,9371.000,9228.000
9303.000,9180.000,9182.000
9406.000,9182.000,9275.000
9282.000,9220.000,9123.000
9294.000,9161.000,9093.000
9271.000,9198.000,9109.000
9371.000,9154.000,9155.000
9285.000,9108.000,9066.000
9308.000,9187.000,9145.000
9266.000,9059.000,9049.000
9203.000,9038.000,8969.000
9168.000,9072.000,8970.000
9108.000,8996.000,8956.000
9235.000,9007.000,9012.000
9287.000,8994.000,9027.000
9194.000,8920.000,8988.000
9083.000,9032.000,8939.000
9140.000,8924.000,8966.000
9148.000,8923.000,9019.000
9175.000,8948.000,8902.000
9206.000,8864.000,8948.000
9200.000,8976.000,8840.000
9196.000,8951.000,8971.000
9089.000,8971.000,8930.000
9168.000,8972.000,8976.000
9149.000,8977.000,8949.000
9211.000,8855.000,8990.000
8992.000,8901.000,8856.000
9102.000,8878.000,8828.000
9117.000,8903.000,8786.000
9122.000,8980.000,8871.000
9034.000,8866.000,8913.000
9046.000,8883.000,8819.000
9091.000,8898.000,8779.000
9004.000,8876.000,8875.000
9053.000,8868.000,8766.000
8958.000,8875.000,8837.000
9027.000,8886.000,8764.000
9025.000,8787.000,8794.000
8985.000,8874.000,8807.000
9048.000,8783.000,8823.000
9061.000,8778.000,8823.000
9050.000,8771.000,8858.000
8993.000,8908.000,8830.000
9079.000,8937.000,8888.000
9050.000,8842.000,8795.000
9076.000,8915.000,8809.000
9153.000,8935.000,8916.000
9085.000,8942.000,8898.000
9128.000,8899.000,8911.000
9124.000,8908.000,8839.000
9126.000,9021.000,8856.000
9174.000,8964.000,8880.000
9053.000,8900.000,8894.000
9169.000,8955.000,8909.000
9083.000,9019.000,8884.000
9051.000,8926.000,9003.000
9069.000,9018.000,8992.000
9190.000,8987.000,8912.000
9122.000,9010.000,8967.000
9218.000,9025.000,8892.000
9142.000,9004.000,8969.000
9271.000,9132.000,8984.000
9278.000,9021.000,9123.000
9233.000,8969.000,9088.000
9338.000,8991.000,8981.000
9186.000,9072.000,8986.000
9172.000,9063.000,9042.000
9255.000,8955.000,9004.000
9199.000,9120.000,8963.000
9245.000,9022.000,8950.000
9209.000,9032.000,8996.000
9111.000,9033.000,8950.000
9250.000,8975.000,8961.000
9108.000,8960.000,8905.000
9165.000,9040.000,8969.000
9275.000,8973.000,9035.000
9232.000,9039.000,9035.000
9165.000,9041.000,9033.000
9350.000,9081.000,9118.000
9279.000,9101.000,8977.000
9276.000,9066.000,9087.000
9230.000,8991.000,9014.000
9289.000,9130.000,8976.000
9211.000,9069.000,9029.000
9240.000,9015.000,8988.000
9246.000,9076.000,8983.000
9116.000,8969.000,8866.000
9207.000,9013.000,8993.000
9092.000,8936.000,8985.000
9123.000,9259.000,8889.000
9151.000,9224.000,8870.000
8963.000,9294.000,8808.000
9118.000,9154.000,8795.000
9076.000,8962.000,8793.000
9013.000,8895.000,8807.000
9034.000,8884.000,8831.000
9101.000,8838.000,8865.000
9015.000,8905.000,8759.000
8992.000,8805.000,8795.000
9147.000,8942.000,8901.000
8967.000,8840.000,8811.000
8995.000,8814.000,8729.000
9028.000,8844.000,8775.000
8977.000,8876.000,8837.000
8918.000,8739.000,8754.000
8851.000,8716.000,8679.000
9079.000,8774.000,8745.000
8985.000,8736.000,8791.000
8966.000,8861.000,8840.000
9019.000,8722.000,8826.000
9028.000,8808.000,8708.000
8945.000,8788.000,8765.000
8995.000,8850.000,8839.000
9030.000,8808.000,8762.000
8974.000,8838.000,8808.000
8998.000,8881.000,8825.000
8973.000,8903.000,8884.000
8956.000,8904.000,8800.000
9042.000,8779.000,8859.000
9012.000,8802.000,8840.000
9034.000,8794.000,8738.000
9001.000,8733.000,8707.000
8946.000,8775.000,8718.000
8871.000,8707.000,8675.000
8931.000,8697.000,8747.000
8917.000,8800.000,8615.000
8922.000,8761.000,8746.000
8875.000,8669.000,8760.000
8908.000,8732.000,8719.000
8962.000,8766.000,8744.000
8858.000,8767.000,8682.000
8948.000,8804.000,8786.000
9016.000,8919.000,8789.000
8988.000,8755.000,8762.000
8995.000,8804.000,8839.000
9023.000,8838.000,8810.000
8994.000,8786.000,8843.000
9030.000,8806.000,8790.000
8948.000,8901.000,8706.000
8966.000,8816.000,8670.000
8921.000,8869.000,8863.000
9028.000,8874.000,8799.000
8970.000,8763.000,8775.000
8923.000,8825.000,8759.000
8903.000,8753.000,8733.000
9044.000,8754.000,8796.000
9009.000,8760.000,8798.000
8969.000,8819.000,8718.000
8926.000,8878.000,8738.000
8947.000,8761.000,8771.000
8937.000,8788.000,8820.000
8983.000,8795.000,8789.000
9031.000,8804.000,8812.000
8994.000,8691.000,8797.000
8945.000,8854.000,8764.000
9117.000,8901.000,8665.000
8934.000,8741.000,8791.000
8950.000,8828.000,8751.000
9000.000,8800.000,8795.000
9038.000,8823.000,8695.000
8955.000,8818.000,8807.000
9006.000,8788.000,8716.000
9048.000,8775.000,8769.000
8966.000,8782.000,8772.000
8887.000,8729.000,8894.000
8940.000,8700.000,8716.000
8966.000,8784.000,8766.000
8987.000,8776.000,8697.000
8985.000,8758.000,8771.000
8983.000,8869.000,8831.000
9003.000,8803.000,8700.000
8922.000,8900.000,8784.000
9043.000,8860.000,8846.000
9019.000,8860.000,8893.000
8973.000,8885.000,8719.000
9022.000,8864.000,8752.000
9061.000,8796.000,8806.000
9130.000,8835.000,8906.000
8957.000,8830.000,8848.000
9154.000,8850.000,8813.000
8976.000,8803.000,8859.000
9037.000,8867.000,8802.000
9108.000,8879.000,8820.000
9165.000,8842.000,8778.000
9065.000,8935.000,8777.000
9038.000,8832.000,8757.000
9009.000,8838.000,8780.000
9069.000,8825.000,8754.000
9010.000,8882.000,8781.000
8975.000,8810.000,8820.000
9000.000,8852.000,8713.000
8881.000,8823.000,8776.000
8963.000,8798.000,8771.000
