Focus Mode,Read Mode,Exposure Time (sec),Number of Frames,Start Y,End Y,Date,Time,Position (microns)
Single Acquisition,Spectrum,20.000000,3,105,125,2/11/2021,5:35:16 PM,0.000000,0.000000,221.990000,

1378.000,1384.000,1371.000
1360.000,1369.000,1377.000
1363.000,1350.000,1384.000
1356.000,1366.000,1378.000
1341.000,1366.000,1372.000
1372.000,1364.000,1365.000
1346.000,1352.000,1358.000
1333.000,1352.000,1354.000
1351.000,1340.000,1353.000
1348.000,1351.000,1359.000
1351.000,1349.000,1362.000
1338.000,1343.000,1358.000
1340.000,1334.000,1361.000
1338.000,1352.000,1353.000
1332.000,1350.000,1346.000
1344.000,1359.000,1353.000
1349.000,1347.000,1352.000
1350.000,1350.000,1350.000
1350.000,1358.000,1365.000
1340.000,1348.000,1364.000
1350.000,1362.000,1366.000
1358.000,1365.000,1364.000
1348.000,1369.000,1367.000
1362.000,1363.000,1370.000
1363.000,1374.000,1366.000
1363.000,1372.000,1391.000
1375.000,1376.000,1384.000
1371.000,1369.000,1386.000
1363.000,1384.000,1389.000
1394.000,1391.000,1404.000
1399.000,1416.000,1419.000
1401.000,1423.000,1420.000
1419.000,1452.000,1425.000
1422.000,1436.000,1439.000
1421.000,1446.000,1433.000
1441.000,1438.000,1442.000
1452.000,1465.000,1444.000
1460.000,1478.000,1465.000
1456.000,1462.000,1465.000
1470.000,1480.000,1481.000
1463.000,1466.000,1482.000
1482.000,1472.000,1486.000
1469.000,1510.000,1504.000
1484.000,1519.000,1521.000
1486.000,1506.000,1544.000
1513.000,1546.000,1535.000
1523.000,1546.000,1553.000
1551.000,1551.000,1597.000
1559.000,1594.000,1612.000
1600.000,1602.000,1611.000
1599.000,1633.000,1639.000
1657.000,1639.000,1686.000
1651.000,1676.000,1683.000
1686.000,1715.000,1714.000
1712.000,1722.000,1747.000
1714.000,1744.000,1776.000
1726.000,1751.000,1790.000
1707.000,1745.000,1768.000
1739.000,1728.000,1772.000
1701.000,1716.000,1766.000
1690.000,1718.000,1748.000
1679.000,1690.000,1731.000
1662.000,1655.000,1679.000
1627.000,1657.000,1657.000
1625.000,1622.000,1641.000
1606.000,1638.000,1634.000
1606.000,1615.000,1620.000
1623.000,1634.000,1612.000
1636.000,1632.000,1644.000
1661.000,1682.000,1715.000
1709.000,1730.000,1736.000
1756.000,1757.000,1779.000
1784.000,1766.000,1850.000
1813.000,1847.000,1893.000
1883.000,1863.000,1894.000
1880.000,1925.000,1944.000
1919.000,1934.000,2001.000
1925.000,1934.000,1982.000
1944.000,1934.000,1995.000
1933.000,1944.000,1990.000
1953.000,1974.000,1988.000
1972.000,1984.000,1997.000
1977.000,1958.000,2036.000
1931.000,1968.000,1968.000
1938.000,1932.000,1965.000
1955.000,1941.000,1997.000
1939.000,1949.000,1993.000
1951.000,1953.000,1989.000
1941.000,1987.000,1981.000
1925.000,1969.000,2009.000
1953.000,1981.000,1996.000
1975.000,2008.000,2026.000
1998.000,1985.000,2055.000
2017.000,2043.000,2099.000
2023.000,2070.000,2104.000
2078.000,2116.000,2140.000
2154.000,2172.000,2167.000
2193.000,2209.000,2240.000
2259.000,2317.000,2306.000
2356.000,2402.000,2455.000
2463.000,2511.000,2563.000
2576.000,2626.000,2670.000
2697.000,2751.000,2736.000
2739.000,2812.000,2869.000
2911.000,2927.000,2955.000
2896.000,2986.000,3040.000
2912.000,3022.000,3055.000
3007.000,3027.000,3066.000
2989.000,3034.000,3068.000
2945.000,3062.000,3121.000
2967.000,3025.000,3007.000
2946.000,3061.000,3071.000
2942.000,3003.000,3030.000
2974.000,2989.000,3034.000
3069.000,3059.000,3081.000
3089.000,3053.000,3092.000
3152.000,3165.000,3211.000
3316.000,3362.000,3347.000
3486.000,3522.000,3472.000
3852.000,3952.000,3885.000
4524.000,4557.000,4475.000
5707.000,6114.000,5579.000
8548.000,9721.000,8339.000
17244.000,53556.000,16262.000
61789.000,61891.000,61768.000
62251.000,62232.000,62251.000
62164.000,62128.000,62168.000
62099.000,62124.000,62094.000
62111.000,62121.000,62102.000
62114.000,62082.000,62103.000
62083.000,62081.000,62077.000
62085.000,62084.000,62078.000
62090.000,62075.000,62079.000
62080.000,62069.000,62072.000
62070.000,62072.000,62067.000
62075.000,62075.000,62070.000
62078.000,62068.000,62072.000
62073.000,62065.000,62067.000
62072.000,62070.000,62071.000
62071.000,62066.000,62069.000
62068.000,62072.000,62062.000
62073.000,62062.000,62062.000
62068.000,62068.000,62066.000
62070.000,62056.000,62060.000
62072.000,62065.000,62066.000
62066.000,62062.000,62061.000
62067.000,62064.000,62066.000
62064.000,62063.000,62065.000
62072.000,62065.000,62064.000
62065.000,62063.000,62061.000
62066.000,62064.000,62063.000
62065.000,62063.000,62060.000
62070.000,62062.000,62062.000
62064.000,62069.000,62064.000
62066.000,62066.000,62062.000
62065.000,62061.000,62063.000
62066.000,62062.000,62062.000
62067.000,62058.000,62063.000
62072.000,62065.000,62064.000
62068.000,62060.000,62063.000
62064.000,62064.000,62062.000
62067.000,62059.000,62056.000
62064.000,62060.000,62068.000
62068.000,62064.000,62067.000
62067.000,62062.000,62060.000
62070.000,62063.000,62064.000
62061.000,62064.000,62062.000
62074.000,62064.000,62067.000
62070.000,62060.000,62064.000
62063.000,62064.000,62063.000
62070.000,62066.000,62061.000
62064.000,62062.000,62058.000
62074.000,62060.000,62061.000
62067.000,62063.000,62065.000
62070.000,62065.000,62059.000
62070.000,62066.000,62065.000
62073.000,62064.000,62066.000
62071.000,62065.000,62066.000
62088.000,62072.000,62082.000
62107.000,62098.000,62099.000
7272.000,65535.000,36738.000
1578.000,1646.000,1619.000
1550.000,1560.000,1555.000
1534.000,1524.000,1542.000
1514.000,1534.000,1533.000
1480.000,1517.000,1487.000
1497.000,1502.000,1495.000
1500.000,1497.000,1490.000
1481.000,1498.000,1480.000
1461.000,1475.000,1461.000
1441.000,1466.000,1455.000
1446.000,1467.000,1461.000
1442.000,1456.000,1443.000
1445.000,1441.000,1456.000
1434.000,1432.000,1445.000
1434.000,1418.000,1434.000
1422.000,1443.000,1425.000
1431.000,1429.000,1432.000
1401.000,1405.000,1416.000
1419.000,1420.000,1417.000
1408.000,1416.000,1402.000
1410.000,1415.000,1411.000
1404.000,1409.000,1411.000
1420.000,1418.000,1412.000
1387.000,1407.000,1399.000
1405.000,1397.000,1409.000
1402.000,1393.000,1394.000
1378.000,1385.000,1378.000
1388.000,1385.000,1390.000
1385.000,1391.000,1396.000
1376.000,1377.000,1383.000
1385.000,1381.000,1383.000
1369.000,1379.000,1374.000
1378.000,1375.000,1369.000
1367.000,1368.000,1369.000
1362.000,1374.000,1362.000
1347.000,1372.000,1379.000
1353.000,1356.000,1372.000
1363.000,1374.000,1357.000
1351.000,1359.000,1354.000
1354.000,1356.000,1350.000
1351.000,1359.000,1345.000
1362.000,1349.000,1362.000
1333.000,1332.000,1345.000
1327.000,1339.000,1340.000
1349.000,1343.000,1347.000
1346.000,1337.000,1333.000
1341.000,1350.000,1348.000
1329.000,1345.000,1331.000
1327.000,1337.000,1322.000
1340.000,1339.000,1336.000
1343.000,1338.000,1349.000
1325.000,1335.000,1330.000
1333.000,1328.000,1335.000
1341.000,1331.000,1330.000
1326.000,1324.000,1332.000
1314.000,1334.000,1344.000
1326.000,1337.000,1328.000
1321.000,1321.000,1326.000
1322.000,1324.000,1317.000
1329.000,1321.000,1332.000
1324.000,1330.000,1323.000
1323.000,1312.000,1318.000
1320.000,1318.000,1318.000
1312.000,1312.000,1318.000
1313.000,1315.000,1319.000
1309.000,1320.000,1307.000
1323.000,1320.000,1317.000
1307.000,1304.000,1299.000
1309.000,1315.000,1306.000
1309.000,1310.000,1303.000
1304.000,1306.000,1314.000
1311.000,1310.000,1308.000
1309.000,1305.000,1309.000
1310.000,1302.000,1309.000
1314.000,1313.000,1314.000
1306.000,1305.000,1298.000
1301.000,1304.000,1312.000
1307.000,1306.000,1310.000
1307.000,1301.000,1312.000
1302.000,1321.000,1307.000
1302.000,1305.000,1298.000
1302.000,1291.000,1299.000
1307.000,1289.000,1302.000
1303.000,1301.000,1309.000
1297.000,1295.000,1307.000
1299.000,1294.000,1295.000
1302.000,1301.000,1299.000
1302.000,1301.000,1301.000
1291.000,1294.000,1308.000
1305.000,1298.000,1305.000
1295.000,1299.000,1306.000
1298.000,1308.000,1306.000
1312.000,1298.000,1313.000
1305.000,1301.000,1301.000
1307.000,1305.000,1316.000
1300.000,1303.000,1306.000
1306.000,1308.000,1303.000
1307.000,1308.000,1312.000
1307.000,1306.000,1310.000
1300.000,1310.000,1317.000
1318.000,1309.000,1315.000
1314.000,1312.000,1325.000
1319.000,1303.000,1324.000
1315.000,1329.000,1312.000
1319.000,1327.000,1331.000
1320.000,1339.000,1333.000
1349.000,1343.000,1326.000
1346.000,1344.000,1354.000
1346.000,1347.000,1348.000
1368.000,1361.000,1359.000
1387.000,1392.000,1395.000
1404.000,1393.000,1393.000
1414.000,1416.000,1405.000
1456.000,1433.000,1425.000
1454.000,1441.000,1428.000
1478.000,1477.000,1459.000
1531.000,1516.000,1481.000
1560.000,1538.000,1538.000
1583.000,1589.000,1563.000
1646.000,1645.000,1621.000
1690.000,1682.000,1676.000
1786.000,1761.000,1742.000
1855.000,1857.000,1813.000
1982.000,1915.000,1934.000
2085.000,2055.000,2012.000
2245.000,2184.000,2150.000
2387.000,2361.000,2318.000
2644.000,2535.000,2491.000
2830.000,2762.000,2653.000
3027.000,2964.000,2954.000
3400.000,3309.000,3248.000
3734.000,3668.000,3515.000
4166.000,4011.000,3910.000
4623.000,4456.000,4343.000
5083.000,4968.000,4766.000
5648.000,5416.000,5327.000
6198.000,5975.000,5842.000
6774.000,6592.000,6359.000
7385.000,7144.000,6966.000
7963.000,7779.000,7523.000
8679.000,8346.000,8055.000
9178.000,8834.000,8630.000
9648.000,9394.000,9129.000
10207.000,9837.000,9511.000
10537.000,10205.000,9847.000
10889.000,10499.000,10177.000
11230.000,10819.000,10431.000
11281.000,10935.000,10645.000
11528.000,11186.000,10909.000
11574.000,11299.000,10863.000
11644.000,11342.000,10880.000
11668.000,11501.000,11070.000
11792.000,11438.000,11042.000
11850.000,11459.000,11124.000
11969.000,11438.000,11125.000
11869.000,11388.000,11002.000
11731.000,11443.000,11095.000
11742.000,11385.000,11122.000
11674.000,11400.000,10934.000
11800.000,11381.000,11009.000
11781.000,11440.000,11103.000
11890.000,11427.000,10969.000
11782.000,11292.000,11132.000
11764.000,11376.000,11002.000
11847.000,11369.000,11145.000
11830.000,11458.000,10981.000
11944.000,11409.000,11059.000
11882.000,11447.000,11111.000
11856.000,11466.000,11105.000
11845.000,11393.000,11031.000
11867.000,11499.000,11101.000
11739.000,11437.000,11160.000
11882.000,11588.000,11126.000
11870.000,11633.000,11067.000
11939.000,11545.000,11009.000
11802.000,11609.000,11067.000
11951.000,11435.000,11085.000
11953.000,11561.000,11120.000
11880.000,11599.000,11083.000
11911.000,11594.000,11165.000
12006.000,11511.000,11199.000
11993.000,11464.000,11160.000
11932.000,11466.000,11144.000
11880.000,11503.000,11134.000
11901.000,11543.000,11156.000
11861.000,11476.000,11187.000
11866.000,11515.000,11048.000
11957.000,11597.000,11161.000
12022.000,11554.000,11103.000
11929.000,11539.000,11076.000
11939.000,11523.000,11076.000
11978.000,11661.000,11313.000
11884.000,11543.000,11053.000
11953.000,11503.000,11283.000
11903.000,11604.000,11152.000
12050.000,11639.000,11149.000
12054.000,11523.000,11158.000
11972.000,11618.000,11292.000
12129.000,11667.000,11259.000
12099.000,11700.000,11417.000
12022.000,11725.000,11328.000
12152.000,11755.000,11381.000
12261.000,11801.000,11362.000
12166.000,11738.000,11438.000
12303.000,11802.000,11344.000
12263.000,11694.000,11249.000
12231.000,11774.000,11379.000
12229.000,11828.000,11486.000
12212.000,11850.000,11280.000
12208.000,11808.000,11478.000
12272.000,11877.000,11344.000
12237.000,11876.000,11385.000
12342.000,11857.000,11521.000
12271.000,11826.000,11533.000
12268.000,11999.000,11505.000
12346.000,11943.000,11503.000
12272.000,11864.000,11535.000
12338.000,11924.000,11603.000
12336.000,11946.000,11527.000
12450.000,12014.000,11645.000
12469.000,11955.000,11487.000
12335.000,11974.000,11550.000
12328.000,11982.000,11481.000
12284.000,11920.000,11438.000
12382.000,11799.000,11522.000
12267.000,12028.000,11574.000
12418.000,11820.000,11481.000
12428.000,11934.000,11593.000
12305.000,11923.000,11520.000
12426.000,11978.000,11519.000
12389.000,11982.000,11529.000
12451.000,11968.000,11552.000
12414.000,12017.000,11491.000
12336.000,11976.000,11435.000
12377.000,12004.000,11532.000
12503.000,12025.000,11651.000
12359.000,11963.000,11569.000
12401.000,11897.000,11481.000
12379.000,11912.000,11501.000
12460.000,11995.000,11483.000
12478.000,12054.000,11495.000
12397.000,12029.000,11615.000
12479.000,12006.000,11598.000
12503.000,12027.000,11643.000
12496.000,12168.000,11642.000
12542.000,12072.000,11651.000
12659.000,12135.000,11708.000
12614.000,12128.000,11640.000
12673.000,12238.000,11689.000
12623.000,12253.000,11840.000
12634.000,12256.000,11867.000
12787.000,12332.000,11791.000
12779.000,12250.000,11896.000
12883.000,12248.000,11824.000
12752.000,12316.000,11850.000
12624.000,12237.000,11844.000
12774.000,12315.000,11766.000
12713.000,12214.000,11857.000
12795.000,12171.000,11843.000
12832.000,12326.000,11788.000
12698.000,12179.000,11755.000
12645.000,12080.000,11804.000
12666.000,12227.000,11811.000
12610.000,12298.000,11729.000
12646.000,12249.000,11763.000
12743.000,12171.000,11735.000
12734.000,12210.000,11792.000
12566.000,12351.000,11793.000
12616.000,12254.000,11820.000
12740.000,12258.000,11820.000
12649.000,12258.000,11907.000
12747.000,12272.000,11811.000
12853.000,12201.000,11722.000
12779.000,12203.000,11775.000
12703.000,12161.000,11797.000
12683.000,12150.000,11736.000
12818.000,12351.000,11688.000
12808.000,12207.000,11811.000
12691.000,12228.000,11765.000
12772.000,12205.000,11831.000
12688.000,12169.000,11781.000
12757.000,12246.000,11895.000
12702.000,12240.000,11784.000
12773.000,12236.000,11797.000
12649.000,12148.000,11802.000
12657.000,12232.000,11864.000
12764.000,12172.000,11746.000
12717.000,12327.000,11705.000
12747.000,12222.000,11712.000
12873.000,12237.000,11700.000
12784.000,12282.000,11693.000
12847.000,12242.000,12060.000
12839.000,12211.000,11769.000
12791.000,12298.000,11915.000
12825.000,12306.000,11809.000
12945.000,12350.000,11949.000
12920.000,12351.000,12000.000
12972.000,12355.000,11919.000
12931.000,12372.000,11940.000
12875.000,12389.000,11913.000
12862.000,12279.000,11976.000
12878.000,12295.000,11945.000
13020.000,12459.000,11832.000
12865.000,12348.000,12008.000
13011.000,12378.000,11942.000
12973.000,12519.000,12020.000
13072.000,12526.000,11918.000
12944.000,12443.000,12068.000
12946.000,12529.000,12006.000
13149.000,12566.000,12107.000
13104.000,12443.000,12051.000
12975.000,12512.000,12044.000
13167.000,12591.000,12121.000
13035.000,12568.000,12174.000
13074.000,12545.000,12184.000
13150.000,12686.000,12163.000
13037.000,12625.000,12125.000
13196.000,12606.000,12053.000
13105.000,12570.000,12192.000
13146.000,12646.000,12105.000
13189.000,12488.000,12156.000
12941.000,12552.000,12184.000
13101.000,12616.000,12097.000
13190.000,12563.000,12106.000
13096.000,12661.000,12152.000
13117.000,12584.000,12039.000
13202.000,12635.000,12046.000
13167.000,12501.000,12142.000
13007.000,12638.000,12045.000
13048.000,12450.000,12060.000
13078.000,12570.000,12047.000
12932.000,12565.000,11975.000
12984.000,12453.000,12000.000
12981.000,12408.000,12040.000
12913.000,12479.000,11999.000
13025.000,12412.000,12020.000
13011.000,12383.000,11832.000
12968.000,12317.000,11909.000
12861.000,12286.000,11856.000
12973.000,12346.000,11952.000
12855.000,12364.000,11870.000
12919.000,12400.000,11800.000
12888.000,12370.000,11830.000
12882.000,12444.000,11910.000
12892.000,12378.000,11879.000
12914.000,12281.000,11858.000
12820.000,12309.000,11907.000
12832.000,12440.000,11925.000
13000.000,12471.000,11933.000
12980.000,12312.000,12027.000
12979.000,12476.000,11989.000
12951.000,12368.000,12075.000
12900.000,12237.000,11966.000
12969.000,12372.000,11860.000
12847.000,12231.000,11910.000
12926.000,12341.000,11988.000
12865.000,12289.000,11923.000
12827.000,12240.000,11882.000
12787.000,12223.000,11864.000
12744.000,12172.000,11841.000
12786.000,12282.000,11869.000
12732.000,12179.000,11755.000
12796.000,12112.000,11728.000
12763.000,12134.000,11757.000
12821.000,12280.000,11887.000
12788.000,12182.000,11712.000
12829.000,12236.000,11700.000
12679.000,12274.000,11802.000
12747.000,12192.000,11811.000
12892.000,12263.000,11769.000
12867.000,12246.000,11769.000
12832.000,12128.000,11915.000
12855.000,12398.000,11803.000
12905.000,12394.000,11897.000
12934.000,12237.000,11812.000
12897.000,12500.000,11909.000
13046.000,12309.000,11980.000
12917.000,12436.000,11909.000
13064.000,12399.000,11844.000
13058.000,12281.000,11884.000
13049.000,12350.000,11979.000
13029.000,12345.000,11866.000
13016.000,12314.000,11918.000
13095.000,12472.000,11926.000
13072.000,12439.000,12014.000
13209.000,12407.000,12009.000
13057.000,12543.000,12027.000
13063.000,12690.000,12117.000
13180.000,12636.000,12020.000
13212.000,12633.000,12090.000
13170.000,12628.000,12278.000
13345.000,12736.000,12279.000
13309.000,12753.000,12204.000
13301.000,12671.000,12238.000
13207.000,12629.000,12238.000
13224.000,12752.000,12260.000
13237.000,12705.000,12207.000
13119.000,12628.000,12249.000
13084.000,12559.000,12103.000
13256.000,12624.000,12052.000
13135.000,12577.000,12049.000
13169.000,12579.000,12318.000
13220.000,12789.000,12222.000
13271.000,12707.000,12348.000
13232.000,12744.000,12341.000
13339.000,12795.000,12321.000
13310.000,12898.000,12458.000
13434.000,12776.000,12422.000
13412.000,12857.000,12435.000
13552.000,12774.000,12335.000
13357.000,12876.000,12292.000
13286.000,12688.000,12216.000
13233.000,12711.000,12261.000
13136.000,12653.000,12246.000
13153.000,12553.000,12066.000
13156.000,12416.000,12041.000
13075.000,12561.000,12034.000
13071.000,12371.000,11884.000
12982.000,12339.000,11839.000
12991.000,12443.000,11929.000
13024.000,12328.000,11803.000
12892.000,12344.000,11860.000
12929.000,12347.000,11943.000
12807.000,12426.000,11760.000
12893.000,12346.000,11719.000
13024.000,12225.000,11841.000
12896.000,12247.000,11838.000
12885.000,12257.000,11780.000
12831.000,12309.000,11746.000
12912.000,12314.000,11895.000
12848.000,12176.000,11861.000
12699.000,12203.000,11775.000
12873.000,12385.000,11781.000
12899.000,12174.000,11712.000
12808.000,12294.000,11827.000
12786.000,12274.000,11665.000
12808.000,12307.000,11832.000
12787.000,12296.000,11911.000
12812.000,12215.000,11796.000
12920.000,12207.000,11894.000
12956.000,12364.000,11817.000
12965.000,12327.000,11810.000
12887.000,12297.000,11755.000
12740.000,12319.000,11741.000
12845.000,12352.000,11801.000
12934.000,12304.000,11836.000
12810.000,12289.000,11870.000
12906.000,12330.000,11791.000
12938.000,12323.000,11929.000
12823.000,12269.000,11903.000
12765.000,12260.000,11731.000
12814.000,12284.000,11723.000
12880.000,12278.000,11713.000
12787.000,12189.000,11827.000
12716.000,12177.000,11720.000
12686.000,12195.000,11843.000
12857.000,12298.000,11679.000
12854.000,12268.000,11859.000
12884.000,12215.000,11720.000
12712.000,12300.000,11770.000
12900.000,12171.000,11933.000
12931.000,12329.000,11873.000
12977.000,12281.000,11868.000
13009.000,12322.000,11900.000
12905.000,12299.000,11810.000
12850.000,12401.000,11784.000
12808.000,12217.000,11776.000
12800.000,12231.000,11899.000
12881.000,12138.000,11794.000
12825.000,12349.000,11768.000
12914.000,12209.000,11712.000
12887.000,12247.000,11734.000
12916.000,12344.000,11869.000
13005.000,12383.000,11847.000
12859.000,12210.000,11875.000
12871.000,12268.000,11744.000
12923.000,12308.000,11883.000
12889.000,12311.000,11829.000
12943.000,12404.000,11988.000
13080.000,12338.000,11780.000
12974.000,12359.000,11825.000
12928.000,12273.000,11915.000
12871.000,12377.000,11934.000
