Focus Mode,Read Mode,Exposure Time (sec),Number of Frames,Start Y,End Y,Date,Time,Position (microns)
Single Acquisition,Spectrum,20.000000,3,105,125,2/11/2021,5:47:48 PM,0.000000,0.000000,221.990000,

1299.000,1352.000,1380.000
1299.000,1352.000,1377.000
1311.000,1343.000,1374.000
1303.000,1343.000,1367.000
1301.000,1351.000,1363.000
1299.000,1338.000,1358.000
1298.000,1339.000,1362.000
1305.000,1335.000,1375.000
1292.000,1338.000,1345.000
1303.000,1330.000,1353.000
1305.000,1329.000,1356.000
1310.000,1338.000,1342.000
1295.000,1336.000,1353.000
1293.000,1349.000,1341.000
1305.000,1335.000,1349.000
1296.000,1335.000,1351.000
1317.000,1332.000,1365.000
1291.000,1343.000,1349.000
1303.000,1339.000,1357.000
1310.000,1334.000,1357.000
1323.000,1335.000,1358.000
1311.000,1347.000,1361.000
1311.000,1351.000,1367.000
1320.000,1360.000,1365.000
1328.000,1352.000,1359.000
1315.000,1365.000,1386.000
1315.000,1362.000,1383.000
1325.000,1366.000,1386.000
1330.000,1391.000,1399.000
1331.000,1384.000,1400.000
1346.000,1384.000,1406.000
1340.000,1410.000,1408.000
1346.000,1411.000,1420.000
1343.000,1415.000,1446.000
1344.000,1422.000,1438.000
1354.000,1430.000,1447.000
1355.000,1446.000,1471.000
1367.000,1433.000,1462.000
1377.000,1445.000,1489.000
1386.000,1461.000,1496.000
1376.000,1449.000,1498.000
1390.000,1459.000,1480.000
1380.000,1471.000,1511.000
1403.000,1485.000,1516.000
1406.000,1500.000,1526.000
1432.000,1514.000,1538.000
1431.000,1514.000,1575.000
1460.000,1545.000,1577.000
1442.000,1544.000,1609.000
1457.000,1584.000,1624.000
1475.000,1585.000,1641.000
1485.000,1613.000,1660.000
1492.000,1651.000,1728.000
1507.000,1648.000,1724.000
1521.000,1693.000,1765.000
1545.000,1670.000,1809.000
1513.000,1724.000,1781.000
1519.000,1737.000,1794.000
1515.000,1690.000,1774.000
1518.000,1688.000,1784.000
1520.000,1663.000,1755.000
1526.000,1661.000,1739.000
1527.000,1649.000,1689.000
1531.000,1621.000,1688.000
1515.000,1597.000,1638.000
1493.000,1597.000,1632.000
1501.000,1576.000,1634.000
1540.000,1600.000,1637.000
1548.000,1627.000,1696.000
1542.000,1642.000,1675.000
1598.000,1684.000,1756.000
1626.000,1716.000,1770.000
1650.000,1766.000,1834.000
1680.000,1810.000,1873.000
1693.000,1834.000,1907.000
1722.000,1857.000,1940.000
1755.000,1884.000,1969.000
1765.000,1933.000,2016.000
1772.000,1899.000,2015.000
1786.000,1939.000,2029.000
1815.000,1923.000,2021.000
1774.000,1934.000,2008.000
1803.000,1936.000,2030.000
1811.000,1924.000,2012.000
1844.000,1948.000,2019.000
1806.000,1958.000,2017.000
1838.000,1942.000,2000.000
1826.000,1968.000,2030.000
1858.000,1939.000,2022.000
1860.000,1974.000,2033.000
1858.000,2000.000,2040.000
1915.000,1989.000,2069.000
1919.000,1998.000,2106.000
1923.000,2030.000,2112.000
1999.000,2056.000,2181.000
2022.000,2133.000,2189.000
2076.000,2199.000,2281.000
2141.000,2269.000,2325.000
2194.000,2359.000,2447.000
2323.000,2459.000,2613.000
2431.000,2578.000,2648.000
2552.000,2687.000,2807.000
2620.000,2811.000,2974.000
2765.000,2947.000,3158.000
2809.000,3103.000,3259.000
2915.000,3091.000,3280.000
2946.000,3145.000,3309.000
2985.000,3160.000,3357.000
3031.000,3212.000,3398.000
2995.000,3183.000,3377.000
2959.000,3136.000,3292.000
2958.000,3163.000,3261.000
2902.000,3058.000,3202.000
2893.000,3044.000,3142.000
2918.000,3051.000,3181.000
2981.000,3130.000,3217.000
3095.000,3208.000,3316.000
3232.000,3328.000,3388.000
3388.000,3520.000,3547.000
3735.000,3922.000,3894.000
4279.000,4473.000,4503.000
5584.000,5752.000,5592.000
8596.000,8826.000,8362.000
18131.000,64654.000,65535.000
61819.000,61942.000,61964.000
62258.000,62234.000,62235.000
62173.000,62121.000,62136.000
62097.000,62131.000,62134.000
62116.000,62121.000,62130.000
62114.000,62092.000,62092.000
62087.000,62084.000,62092.000
62082.000,62091.000,62093.000
62093.000,62077.000,62083.000
62084.000,62075.000,62077.000
62069.000,62079.000,62079.000
62077.000,62076.000,62076.000
62080.000,62071.000,62075.000
62070.000,62074.000,62073.000
62068.000,62072.000,62071.000
62073.000,62067.000,62075.000
62072.000,62069.000,62075.000
62072.000,62070.000,62070.000
62068.000,62072.000,62074.000
62074.000,62070.000,62074.000
62071.000,62069.000,62072.000
62072.000,62071.000,62072.000
62071.000,62066.000,62072.000
62076.000,62068.000,62072.000
62072.000,62072.000,62071.000
62071.000,62066.000,62066.000
62070.000,62066.000,62071.000
62071.000,62066.000,62074.000
62070.000,62069.000,62071.000
62072.000,62058.000,62067.000
62072.000,62057.000,62071.000
62067.000,62066.000,62070.000
62065.000,62061.000,62071.000
62070.000,62070.000,62072.000
62069.000,62066.000,62067.000
62069.000,62063.000,62065.000
62069.000,62064.000,62076.000
62073.000,62065.000,62070.000
62068.000,62071.000,62067.000
62069.000,62068.000,62070.000
62073.000,62064.000,62069.000
62073.000,62066.000,62067.000
62071.000,62069.000,62074.000
62075.000,62065.000,62067.000
62068.000,62064.000,62070.000
62073.000,62067.000,62072.000
62074.000,62063.000,62072.000
62070.000,62063.000,62070.000
62068.000,62071.000,62068.000
62070.000,62070.000,62072.000
62067.000,62065.000,62073.000
62075.000,62070.000,62071.000
62072.000,62069.000,62066.000
62090.000,62073.000,62075.000
62102.000,62066.000,62071.000
42254.000,62074.000,62075.000
1625.000,62093.000,62073.000
1541.000,62110.000,62091.000
1513.000,3345.000,62106.000
1512.000,1558.000,27842.000
1508.000,1528.000,1592.000
1488.000,1520.000,1546.000
1519.000,1523.000,1519.000
1475.000,1490.000,1506.000
1479.000,1483.000,1495.000
1455.000,1472.000,1484.000
1458.000,1467.000,1486.000
1455.000,1469.000,1469.000
1433.000,1469.000,1474.000
1429.000,1460.000,1465.000
1427.000,1456.000,1446.000
1434.000,1449.000,1450.000
1429.000,1437.000,1443.000
1413.000,1439.000,1430.000
1422.000,1432.000,1447.000
1405.000,1424.000,1429.000
1407.000,1409.000,1438.000
1406.000,1422.000,1419.000
1414.000,1420.000,1414.000
1394.000,1408.000,1424.000
1399.000,1400.000,1419.000
1393.000,1402.000,1406.000
1372.000,1397.000,1400.000
1389.000,1382.000,1395.000
1379.000,1371.000,1396.000
1398.000,1384.000,1381.000
1369.000,1376.000,1382.000
1390.000,1375.000,1379.000
1373.000,1379.000,1389.000
1377.000,1372.000,1376.000
1367.000,1382.000,1370.000
1361.000,1374.000,1377.000
1366.000,1372.000,1360.000
1369.000,1368.000,1360.000
1351.000,1358.000,1367.000
1353.000,1364.000,1360.000
1361.000,1354.000,1358.000
1347.000,1351.000,1362.000
1355.000,1357.000,1359.000
1345.000,1347.000,1357.000
1337.000,1342.000,1356.000
1341.000,1342.000,1351.000
1339.000,1351.000,1352.000
1333.000,1348.000,1345.000
1329.000,1337.000,1351.000
1339.000,1345.000,1335.000
1339.000,1336.000,1343.000
1326.000,1330.000,1339.000
1336.000,1341.000,1333.000
1332.000,1338.000,1338.000
1327.000,1332.000,1343.000
1322.000,1327.000,1331.000
1314.000,1336.000,1325.000
1320.000,1329.000,1324.000
1312.000,1314.000,1325.000
1327.000,1325.000,1327.000
1324.000,1333.000,1333.000
1313.000,1321.000,1327.000
1323.000,1319.000,1317.000
1307.000,1322.000,1326.000
1310.000,1327.000,1320.000
1312.000,1317.000,1329.000
1309.000,1323.000,1320.000
1308.000,1327.000,1333.000
1303.000,1322.000,1315.000
1310.000,1311.000,1305.000
1308.000,1323.000,1315.000
1302.000,1313.000,1306.000
1309.000,1299.000,1319.000
1306.000,1310.000,1313.000
1303.000,1316.000,1307.000
1301.000,1314.000,1306.000
1308.000,1321.000,1303.000
1302.000,1305.000,1295.000
1304.000,1307.000,1311.000
1308.000,1305.000,1303.000
1305.000,1306.000,1303.000
1293.000,1304.000,1312.000
1297.000,1308.000,1317.000
1301.000,1310.000,1306.000
1313.000,1305.000,1300.000
1300.000,1299.000,1317.000
1300.000,1310.000,1314.000
1307.000,1303.000,1295.000
1295.000,1306.000,1293.000
1295.000,1302.000,1308.000
1287.000,1300.000,1307.000
1295.000,1294.000,1304.000
1306.000,1307.000,1304.000
1292.000,1300.000,1301.000
1309.000,1297.000,1302.000
1291.000,1303.000,1309.000
1304.000,1303.000,1302.000
1294.000,1303.000,1303.000
1301.000,1305.000,1310.000
1299.000,1311.000,1305.000
1311.000,1307.000,1309.000
1317.000,1315.000,1304.000
1303.000,1316.000,1317.000
1313.000,1317.000,1327.000
1315.000,1309.000,1331.000
1329.000,1319.000,1327.000
1337.000,1324.000,1324.000
1330.000,1349.000,1335.000
1346.000,1338.000,1341.000
1349.000,1357.000,1347.000
1360.000,1351.000,1360.000
1360.000,1365.000,1359.000
1378.000,1391.000,1385.000
1384.000,1404.000,1387.000
1405.000,1421.000,1409.000
1443.000,1436.000,1430.000
1439.000,1455.000,1451.000
1488.000,1489.000,1481.000
1509.000,1516.000,1504.000
1561.000,1544.000,1551.000
1591.000,1587.000,1603.000
1627.000,1640.000,1628.000
1697.000,1715.000,1702.000
1786.000,1785.000,1766.000
1847.000,1868.000,1848.000
1947.000,1954.000,1930.000
2053.000,2126.000,2047.000
2223.000,2219.000,2186.000
2393.000,2380.000,2352.000
2554.000,2598.000,2491.000
2842.000,2816.000,2794.000
3059.000,3095.000,2967.000
3368.000,3383.000,3266.000
3739.000,3685.000,3611.000
4084.000,4105.000,3953.000
4581.000,4562.000,4375.000
4975.000,4999.000,4823.000
5489.000,5462.000,5335.000
6022.000,6010.000,5787.000
6514.000,6474.000,6291.000
7070.000,6996.000,6743.000
7549.000,7526.000,7304.000
8167.000,8112.000,7634.000
8583.000,8413.000,8215.000
8937.000,8921.000,8587.000
9193.000,9233.000,8986.000
9545.000,9453.000,9159.000
9818.000,9799.000,9449.000
9917.000,10001.000,9612.000
10140.000,10139.000,9740.000
10196.000,10150.000,9690.000
10320.000,10290.000,9859.000
10428.000,10224.000,9950.000
10356.000,10361.000,9873.000
10156.000,10332.000,9947.000
10371.000,10301.000,10065.000
10410.000,10260.000,9933.000
10379.000,10417.000,10041.000
10379.000,10436.000,9953.000
10263.000,10337.000,9875.000
10312.000,10425.000,9984.000
10323.000,10304.000,9831.000
10217.000,10332.000,9953.000
10346.000,10371.000,10095.000
10327.000,10348.000,9940.000
10310.000,10313.000,10004.000
10457.000,10461.000,9994.000
10394.000,10409.000,10054.000
10364.000,10271.000,10028.000
10323.000,10458.000,10124.000
10430.000,10380.000,9999.000
10421.000,10501.000,9987.000
10381.000,10481.000,9866.000
10403.000,10391.000,9979.000
10414.000,10463.000,10026.000
10483.000,10477.000,10058.000
10427.000,10484.000,9989.000
10302.000,10491.000,9989.000
10442.000,10435.000,10041.000
10458.000,10332.000,10118.000
10402.000,10503.000,10007.000
10448.000,10342.000,9962.000
10341.000,10471.000,10092.000
10433.000,10413.000,10008.000
10544.000,10458.000,10015.000
10493.000,10480.000,9949.000
10440.000,10282.000,9902.000
10437.000,10246.000,10011.000
10441.000,10302.000,9980.000
10463.000,10431.000,10034.000
10549.000,10525.000,9971.000
10449.000,10504.000,9969.000
10520.000,10363.000,10039.000
10499.000,10421.000,10003.000
10518.000,10397.000,10023.000
10494.000,10329.000,10019.000
10562.000,10440.000,9974.000
10658.000,10484.000,10008.000
10610.000,10568.000,10072.000
10736.000,10568.000,10190.000
10688.000,10587.000,10272.000
10653.000,10592.000,10046.000
10716.000,10626.000,10187.000
10785.000,10592.000,10240.000
10765.000,10622.000,10223.000
10731.000,10642.000,10079.000
10732.000,10604.000,10221.000
10747.000,10627.000,10217.000
10813.000,10668.000,10116.000
10803.000,10627.000,10169.000
10765.000,10688.000,10275.000
10811.000,10680.000,10243.000
10701.000,10676.000,10223.000
10880.000,10708.000,10334.000
10994.000,10599.000,10155.000
10935.000,10723.000,10252.000
10824.000,10754.000,10256.000
10903.000,10680.000,10243.000
11006.000,10730.000,10263.000
11048.000,10770.000,10344.000
10958.000,10846.000,10297.000
10938.000,10590.000,10120.000
11010.000,10664.000,10228.000
10948.000,10677.000,10284.000
10871.000,10693.000,10251.000
10920.000,10757.000,10261.000
10949.000,10736.000,10206.000
10850.000,10628.000,10260.000
11051.000,10695.000,10277.000
10949.000,10632.000,10250.000
10987.000,10824.000,10276.000
10947.000,10657.000,10252.000
11003.000,10677.000,10299.000
10939.000,10803.000,10321.000
11010.000,10686.000,10199.000
11015.000,10714.000,10163.000
10962.000,10646.000,10264.000
11052.000,10753.000,10262.000
11005.000,10699.000,10278.000
10925.000,10800.000,10204.000
11017.000,10762.000,10184.000
11028.000,10711.000,10274.000
11006.000,10690.000,10177.000
11118.000,10685.000,10207.000
11098.000,10669.000,10219.000
11121.000,10713.000,10274.000
11207.000,10876.000,10310.000
11272.000,10851.000,10315.000
11230.000,10876.000,10333.000
11242.000,10955.000,10415.000
11218.000,10992.000,10461.000
11181.000,11152.000,10544.000
11291.000,10890.000,10549.000
11244.000,11058.000,10568.000
11311.000,11148.000,10615.000
11273.000,11094.000,10663.000
11272.000,11032.000,10495.000
11307.000,10877.000,10492.000
11253.000,10895.000,10477.000
11315.000,10930.000,10411.000
11278.000,10931.000,10301.000
11217.000,10917.000,10449.000
11237.000,10760.000,10349.000
11244.000,10875.000,10353.000
11289.000,10930.000,10307.000
11394.000,10917.000,10383.000
11375.000,10873.000,10388.000
11342.000,10841.000,10321.000
11384.000,10883.000,10384.000
11347.000,10816.000,10315.000
11389.000,10751.000,10307.000
11291.000,10933.000,10338.000
11357.000,10888.000,10365.000
11396.000,10836.000,10354.000
11442.000,10832.000,10323.000
11296.000,10798.000,10379.000
11303.000,10800.000,10260.000
11282.000,10822.000,10233.000
11456.000,10811.000,10261.000
11351.000,10927.000,10352.000
11347.000,10848.000,10330.000
11358.000,10797.000,10282.000
11361.000,10915.000,10331.000
11332.000,10829.000,10358.000
11332.000,10818.000,10217.000
11317.000,10833.000,10371.000
11279.000,10787.000,10156.000
11330.000,10826.000,10216.000
11230.000,10760.000,10146.000
11307.000,10744.000,10247.000
11379.000,10793.000,10259.000
11437.000,10938.000,10285.000
11461.000,10827.000,10345.000
11313.000,10936.000,10360.000
11406.000,10844.000,10323.000
11308.000,10801.000,10234.000
11482.000,10974.000,10312.000
11464.000,10974.000,10313.000
11432.000,10902.000,10366.000
11577.000,11026.000,10461.000
11494.000,10963.000,10438.000
11409.000,10878.000,10392.000
11352.000,10873.000,10476.000
11468.000,11038.000,10488.000
11484.000,11073.000,10503.000
11465.000,10988.000,10525.000
11445.000,11154.000,10622.000
11487.000,11101.000,10639.000
11542.000,11315.000,10586.000
11497.000,11243.000,10715.000
11572.000,11125.000,10655.000
11537.000,11119.000,10656.000
11540.000,11118.000,10620.000
11635.000,11186.000,10692.000
11672.000,11219.000,10625.000
11571.000,11133.000,10669.000
11689.000,11120.000,10728.000
11768.000,11272.000,10762.000
11623.000,11264.000,10678.000
11676.000,11238.000,10637.000
11620.000,11139.000,10636.000
11693.000,11036.000,10567.000
11713.000,11086.000,10615.000
11679.000,11149.000,10624.000
11785.000,11123.000,10645.000
11713.000,11133.000,10593.000
11776.000,11123.000,10576.000
11666.000,11041.000,10541.000
11705.000,11147.000,10575.000
11722.000,11030.000,10601.000
11538.000,11066.000,10423.000
11599.000,11068.000,10535.000
11675.000,10995.000,10579.000
11607.000,11023.000,10480.000
11542.000,11035.000,10418.000
11696.000,10987.000,10471.000
11593.000,10999.000,10358.000
11601.000,10911.000,10412.000
11418.000,10914.000,10400.000
11481.000,10813.000,10316.000
11489.000,10947.000,10302.000
11410.000,10939.000,10414.000
11569.000,11010.000,10317.000
11576.000,11001.000,10437.000
11534.000,10926.000,10435.000
11570.000,11003.000,10405.000
11546.000,10972.000,10332.000
11504.000,10967.000,10365.000
11575.000,10889.000,10280.000
11477.000,10956.000,10483.000
11505.000,10852.000,10409.000
11433.000,10954.000,10356.000
11548.000,10983.000,10352.000
11453.000,10875.000,10474.000
11461.000,10915.000,10415.000
11383.000,10887.000,10379.000
11493.000,10921.000,10240.000
11537.000,10860.000,10266.000
11400.000,10840.000,10251.000
11462.000,10768.000,10228.000
11289.000,10766.000,10241.000
11380.000,10711.000,10213.000
11387.000,10853.000,10122.000
11385.000,10774.000,10138.000
11453.000,10765.000,10181.000
11397.000,10792.000,10322.000
11364.000,10734.000,10170.000
11371.000,10646.000,10252.000
11344.000,10812.000,10188.000
11536.000,10704.000,10165.000
11506.000,10807.000,10279.000
11520.000,10782.000,10325.000
11541.000,10735.000,10204.000
11433.000,10831.000,10240.000
11639.000,10842.000,10341.000
11532.000,10966.000,10248.000
11592.000,10814.000,10240.000
11580.000,10868.000,10245.000
11611.000,10849.000,10261.000
11514.000,10926.000,10376.000
11480.000,10987.000,10296.000
11581.000,10890.000,10338.000
11539.000,10941.000,10399.000
11616.000,11026.000,10398.000
11574.000,10862.000,10293.000
11513.000,11046.000,10387.000
11749.000,10999.000,10360.000
11757.000,10963.000,10436.000
11701.000,11010.000,10571.000
11755.000,11195.000,10539.000
11812.000,11099.000,10672.000
11704.000,11189.000,10622.000
11841.000,11246.000,10707.000
11676.000,11248.000,10716.000
11694.000,11334.000,10636.000
11733.000,11192.000,10725.000
11643.000,11263.000,10745.000
11681.000,11279.000,10754.000
11672.000,11193.000,10811.000
11539.000,11154.000,10642.000
11588.000,11136.000,10538.000
11540.000,11251.000,10582.000
11711.000,11353.000,10695.000
11693.000,11346.000,10819.000
11704.000,11287.000,10756.000
11783.000,11318.000,10857.000
11758.000,11345.000,10919.000
11820.000,11491.000,10828.000
11870.000,11486.000,10821.000
11798.000,11479.000,10866.000
11773.000,11574.000,10905.000
11652.000,11303.000,10791.000
11700.000,11279.000,10687.000
11678.000,11225.000,10752.000
11712.000,11164.000,10647.000
11647.000,11054.000,10474.000
11586.000,10950.000,10592.000
11628.000,11034.000,10430.000
11511.000,10943.000,10328.000
11462.000,10915.000,10264.000
11500.000,10829.000,10274.000
11517.000,10947.000,10282.000
11610.000,10953.000,10215.000
11449.000,10946.000,10322.000
11473.000,10753.000,10295.000
11581.000,10835.000,10170.000
11496.000,10834.000,10294.000
11539.000,10828.000,10236.000
11553.000,10823.000,10226.000
11516.000,10696.000,10204.000
11435.000,10773.000,10265.000
11496.000,10835.000,10142.000
11412.000,10652.000,10145.000
11419.000,10818.000,10179.000
11454.000,10853.000,10130.000
11429.000,10697.000,10303.000
11348.000,10748.000,10268.000
11448.000,10767.000,10238.000
11433.000,10747.000,10224.000
11456.000,10830.000,10158.000
11521.000,10820.000,10154.000
11546.000,10908.000,10189.000
11513.000,10716.000,10256.000
11400.000,10712.000,10226.000
11592.000,10833.000,10171.000
11390.000,10743.000,10302.000
11551.000,10833.000,10237.000
11519.000,10751.000,10265.000
11492.000,10867.000,10188.000
11409.000,10819.000,10155.000
11454.000,10763.000,10102.000
11416.000,10781.000,10181.000
11482.000,10615.000,10121.000
11427.000,10863.000,10279.000
11379.000,10790.000,10127.000
11443.000,10733.000,10106.000
11479.000,10760.000,10218.000
11514.000,10714.000,10202.000
11468.000,10712.000,10238.000
11468.000,10890.000,10097.000
11597.000,10704.000,10188.000
11637.000,10762.000,10264.000
11624.000,10839.000,10218.000
11518.000,10903.000,10214.000
11616.000,10882.000,10202.000
11571.000,10835.000,10211.000
11638.000,10844.000,10189.000
11530.000,10798.000,10144.000
11544.000,10852.000,10286.000
11604.000,10788.000,10239.000
11457.000,10804.000,10168.000
11492.000,10654.000,10134.000
11415.000,10694.000,10105.000
11539.000,10717.000,10209.000
11594.000,10743.000,10296.000
11479.000,10844.000,10192.000
11421.000,10787.000,10099.000
11487.000,10778.000,10202.000
11370.000,10852.000,10166.000
11595.000,10848.000,10155.000
11657.000,10823.000,10243.000
11597.000,10863.000,10224.000
11548.000,10792.000,10180.000
11600.000,10863.000,10238.000
11681.000,10805.000,10191.000
