Focus Mode,Read Mode,Exposure Time (sec),Number of Frames,Start Y,End Y,Date,Time,Position (microns)
Single Acquisition,Spectrum,20.000000,3,105,125,2/11/2021,5:32:06 PM,-3494.010000,0.000000,221.990000,

1265.000,1261.000,1271.000
1267.000,1266.000,1269.000
1262.000,1266.000,1266.000
1262.000,1272.000,1267.000
1268.000,1267.000,1270.000
1266.000,1268.000,1267.000
1261.000,1262.000,1271.000
1269.000,1271.000,1269.000
1266.000,1257.000,1269.000
1267.000,1271.000,1270.000
1262.000,1280.000,1268.000
1267.000,1267.000,1270.000
1274.000,1272.000,1268.000
1268.000,1270.000,1272.000
1272.000,1276.000,1274.000
1272.000,1275.000,1267.000
1270.000,1272.000,1275.000
1280.000,1279.000,1271.000
1276.000,1273.000,1272.000
1269.000,1278.000,1274.000
1278.000,1271.000,1281.000
1280.000,1271.000,1280.000
1281.000,1284.000,1281.000
1285.000,1284.000,1286.000
1285.000,1283.000,1290.000
1296.000,1282.000,1292.000
1296.000,1294.000,1292.000
1289.000,1302.000,1290.000
1287.000,1285.000,1303.000
1306.000,1300.000,1301.000
1300.000,1310.000,1302.000
1316.000,1307.000,1314.000
1300.000,1319.000,1304.000
1313.000,1307.000,1302.000
1313.000,1321.000,1319.000
1311.000,1325.000,1315.000
1318.000,1313.000,1324.000
1320.000,1328.000,1325.000
1329.000,1326.000,1323.000
1328.000,1328.000,1319.000
1335.000,1331.000,1331.000
1335.000,1334.000,1333.000
1338.000,1335.000,1339.000
1349.000,1345.000,1339.000
1358.000,1353.000,1343.000
1336.000,1337.000,1360.000
1357.000,1364.000,1354.000
1364.000,1356.000,1371.000
1365.000,1360.000,1369.000
1377.000,1371.000,1373.000
1377.000,1384.000,1376.000
1389.000,1391.000,1387.000
1398.000,1390.000,1392.000
1398.000,1394.000,1408.000
1424.000,1404.000,1406.000
1413.000,1413.000,1424.000
1420.000,1409.000,1418.000
1419.000,1425.000,1437.000
1438.000,1410.000,1438.000
1418.000,1428.000,1419.000
1451.000,1431.000,1417.000
1438.000,1437.000,1428.000
1435.000,1437.000,1424.000
1438.000,1429.000,1427.000
1450.000,1460.000,1467.000
1445.000,1457.000,1460.000
1459.000,1465.000,1457.000
1485.000,1475.000,1471.000
1490.000,1486.000,1495.000
1494.000,1495.000,1482.000
1498.000,1503.000,1518.000
1529.000,1510.000,1530.000
1552.000,1553.000,1559.000
1567.000,1549.000,1548.000
1587.000,1574.000,1588.000
1619.000,1597.000,1612.000
1626.000,1640.000,1619.000
1620.000,1619.000,1646.000
1641.000,1649.000,1641.000
1684.000,1639.000,1662.000
1684.000,1675.000,1682.000
1707.000,1674.000,1700.000
1701.000,1722.000,1699.000
1735.000,1704.000,1714.000
1725.000,1713.000,1706.000
1753.000,1731.000,1713.000
1739.000,1754.000,1750.000
1781.000,1747.000,1772.000
1803.000,1786.000,1784.000
1827.000,1798.000,1809.000
1798.000,1846.000,1819.000
1838.000,1831.000,1841.000
1867.000,1890.000,1872.000
1936.000,1896.000,1903.000
1938.000,1946.000,1949.000
1974.000,1969.000,2013.000
2080.000,2081.000,2063.000
2131.000,2135.000,2170.000
2227.000,2194.000,2224.000
2328.000,2360.000,2350.000
2485.000,2459.000,2470.000
2609.000,2576.000,2630.000
2745.000,2738.000,2764.000
2886.000,2890.000,2895.000
2945.000,2968.000,3014.000
3131.000,3061.000,3066.000
3182.000,3141.000,3196.000
3236.000,3190.000,3219.000
3224.000,3206.000,3212.000
3195.000,3218.000,3229.000
3230.000,3181.000,3203.000
3211.000,3159.000,3211.000
3175.000,3134.000,3131.000
3092.000,3109.000,3106.000
3114.000,3084.000,3109.000
3115.000,3126.000,3169.000
3222.000,3189.000,3241.000
3367.000,3312.000,3383.000
3566.000,3411.000,3483.000
3832.000,3706.000,3754.000
4278.000,4220.000,4301.000
5197.000,5087.000,5110.000
7149.000,6876.000,7036.000
12365.000,12119.000,12020.000
29182.000,27492.000,29064.000
61794.000,61828.000,61837.000
62244.000,62246.000,62237.000
62152.000,62157.000,62153.000
62095.000,62096.000,62100.000
62105.000,62099.000,62111.000
62095.000,62096.000,62093.000
62078.000,62078.000,62078.000
62077.000,62080.000,62077.000
62080.000,62079.000,62074.000
62074.000,62072.000,62067.000
62064.000,62069.000,62065.000
62071.000,62067.000,62068.000
62066.000,62067.000,62066.000
62062.000,62067.000,62066.000
62062.000,62068.000,62059.000
62064.000,62065.000,62066.000
62060.000,62065.000,62064.000
62060.000,62069.000,62062.000
62058.000,62057.000,62062.000
62063.000,62064.000,62063.000
62061.000,62065.000,62058.000
62060.000,62060.000,62059.000
62058.000,62058.000,62058.000
62061.000,62063.000,62062.000
62061.000,62060.000,62062.000
62061.000,62060.000,62058.000
62054.000,62062.000,62056.000
62059.000,62059.000,62060.000
62057.000,62060.000,62061.000
62058.000,62061.000,62058.000
62059.000,62063.000,62065.000
62057.000,62064.000,62056.000
62056.000,62064.000,62065.000
62058.000,62065.000,62059.000
62058.000,62061.000,62056.000
62059.000,62060.000,62061.000
62061.000,62059.000,62058.000
62060.000,62064.000,62056.000
62060.000,62058.000,62062.000
62059.000,62059.000,62055.000
62061.000,62062.000,62057.000
62052.000,62060.000,62059.000
62061.000,62058.000,62058.000
62058.000,62061.000,62063.000
62062.000,62063.000,62060.000
62056.000,62059.000,62061.000
62060.000,62066.000,62062.000
62062.000,62067.000,62063.000
62057.000,62068.000,62065.000
62066.000,62083.000,62062.000
62086.000,62088.000,62073.000
62078.000,46551.000,62087.000
1743.000,1636.000,51572.000
1556.000,1564.000,1642.000
1554.000,1519.000,1555.000
1534.000,1535.000,1543.000
1511.000,1528.000,1520.000
1485.000,1516.000,1497.000
1504.000,1488.000,1492.000
1487.000,1478.000,1498.000
1483.000,1470.000,1485.000
1470.000,1463.000,1491.000
1463.000,1464.000,1484.000
1464.000,1450.000,1459.000
1430.000,1446.000,1453.000
1445.000,1416.000,1435.000
1433.000,1427.000,1440.000
1433.000,1425.000,1441.000
1416.000,1409.000,1417.000
1424.000,1421.000,1433.000
1404.000,1400.000,1413.000
1408.000,1412.000,1414.000
1406.000,1416.000,1424.000
1411.000,1400.000,1404.000
1405.000,1403.000,1401.000
1401.000,1391.000,1398.000
1401.000,1395.000,1404.000
1401.000,1388.000,1409.000
1388.000,1378.000,1399.000
1377.000,1381.000,1387.000
1379.000,1384.000,1385.000
1388.000,1371.000,1371.000
1391.000,1381.000,1377.000
1379.000,1371.000,1365.000
1387.000,1385.000,1370.000
1367.000,1363.000,1360.000
1368.000,1366.000,1354.000
1365.000,1372.000,1367.000
1363.000,1359.000,1363.000
1355.000,1358.000,1357.000
1354.000,1362.000,1350.000
1340.000,1355.000,1352.000
1353.000,1346.000,1346.000
1359.000,1358.000,1343.000
1345.000,1340.000,1354.000
1342.000,1343.000,1356.000
1342.000,1347.000,1359.000
1344.000,1344.000,1339.000
1328.000,1341.000,1344.000
1335.000,1332.000,1346.000
1342.000,1336.000,1346.000
1334.000,1343.000,1326.000
1332.000,1335.000,1330.000
1328.000,1335.000,1327.000
1330.000,1335.000,1334.000
1326.000,1333.000,1335.000
1322.000,1329.000,1330.000
1332.000,1326.000,1331.000
1322.000,1310.000,1329.000
1320.000,1330.000,1319.000
1329.000,1327.000,1334.000
1317.000,1332.000,1321.000
1331.000,1322.000,1326.000
1321.000,1322.000,1319.000
1321.000,1318.000,1319.000
1319.000,1315.000,1314.000
1313.000,1307.000,1313.000
1307.000,1311.000,1318.000
1308.000,1316.000,1322.000
1310.000,1306.000,1312.000
1315.000,1307.000,1305.000
1303.000,1306.000,1319.000
1308.000,1306.000,1307.000
1296.000,1303.000,1313.000
1307.000,1310.000,1311.000
1306.000,1308.000,1299.000
1305.000,1299.000,1290.000
1308.000,1297.000,1301.000
1308.000,1305.000,1310.000
1311.000,1298.000,1313.000
1298.000,1300.000,1302.000
1294.000,1296.000,1300.000
1300.000,1292.000,1298.000
1292.000,1304.000,1295.000
1300.000,1304.000,1289.000
1307.000,1299.000,1299.000
1305.000,1300.000,1298.000
1299.000,1293.000,1292.000
1291.000,1289.000,1299.000
1299.000,1288.000,1287.000
1296.000,1298.000,1291.000
1294.000,1301.000,1297.000
1299.000,1286.000,1296.000
1295.000,1296.000,1297.000
1300.000,1282.000,1295.000
1297.000,1286.000,1290.000
1301.000,1282.000,1291.000
1288.000,1297.000,1292.000
1284.000,1285.000,1287.000
1279.000,1283.000,1289.000
1287.000,1292.000,1293.000
1285.000,1288.000,1295.000
1289.000,1304.000,1291.000
1285.000,1287.000,1295.000
1301.000,1295.000,1298.000
1291.000,1293.000,1290.000
1298.000,1296.000,1293.000
1298.000,1289.000,1293.000
1292.000,1289.000,1295.000
1293.000,1301.000,1289.000
1305.000,1292.000,1298.000
1304.000,1305.000,1303.000
1306.000,1294.000,1295.000
1309.000,1306.000,1304.000
1314.000,1320.000,1314.000
1319.000,1307.000,1307.000
1317.000,1306.000,1317.000
1318.000,1323.000,1335.000
1327.000,1322.000,1330.000
1333.000,1338.000,1345.000
1351.000,1349.000,1356.000
1352.000,1359.000,1356.000
1371.000,1356.000,1379.000
1384.000,1386.000,1383.000
1394.000,1384.000,1399.000
1413.000,1422.000,1414.000
1460.000,1444.000,1454.000
1476.000,1463.000,1460.000
1496.000,1498.000,1530.000
1538.000,1524.000,1555.000
1576.000,1586.000,1599.000
1651.000,1647.000,1637.000
1705.000,1688.000,1701.000
1795.000,1791.000,1805.000
1862.000,1858.000,1844.000
1988.000,1968.000,1994.000
2113.000,2093.000,2123.000
2264.000,2271.000,2226.000
2381.000,2439.000,2406.000
2573.000,2602.000,2605.000
2777.000,2759.000,2763.000
2961.000,3003.000,2980.000
3217.000,3216.000,3246.000
3456.000,3468.000,3425.000
3690.000,3693.000,3661.000
3937.000,3983.000,3927.000
4200.000,4211.000,4167.000
4433.000,4412.000,4400.000
4651.000,4684.000,4627.000
4796.000,4806.000,4788.000
4921.000,4988.000,4944.000
5110.000,5088.000,5105.000
5173.000,5273.000,5240.000
5307.000,5341.000,5304.000
5300.000,5338.000,5392.000
5397.000,5392.000,5439.000
5389.000,5463.000,5447.000
5372.000,5419.000,5442.000
5405.000,5411.000,5479.000
5439.000,5447.000,5415.000
5432.000,5519.000,5475.000
5398.000,5415.000,5469.000
5442.000,5428.000,5447.000
5500.000,5436.000,5415.000
5350.000,5471.000,5421.000
5382.000,5406.000,5354.000
5363.000,5426.000,5361.000
5447.000,5379.000,5384.000
5385.000,5365.000,5419.000
5385.000,5410.000,5390.000
5482.000,5424.000,5389.000
5438.000,5467.000,5312.000
5453.000,5399.000,5351.000
5442.000,5391.000,5446.000
5450.000,5394.000,5407.000
5488.000,5380.000,5395.000
5373.000,5436.000,5368.000
5384.000,5371.000,5408.000
5286.000,5370.000,5435.000
5366.000,5421.000,5432.000
5461.000,5381.000,5455.000
5384.000,5376.000,5387.000
5400.000,5411.000,5358.000
5427.000,5309.000,5412.000
5462.000,5374.000,5381.000
5391.000,5375.000,5437.000
5344.000,5416.000,5387.000
5421.000,5459.000,5443.000
5468.000,5389.000,5382.000
5420.000,5397.000,5373.000
5367.000,5374.000,5439.000
5389.000,5441.000,5461.000
5403.000,5487.000,5460.000
5388.000,5399.000,5424.000
5436.000,5420.000,5402.000
5381.000,5470.000,5448.000
5403.000,5392.000,5456.000
5485.000,5462.000,5461.000
5442.000,5484.000,5420.000
5513.000,5482.000,5451.000
5521.000,5501.000,5458.000
5517.000,5467.000,5466.000
5489.000,5494.000,5475.000
5522.000,5551.000,5492.000
5566.000,5551.000,5606.000
5606.000,5612.000,5544.000
5660.000,5526.000,5618.000
5680.000,5599.000,5532.000
5603.000,5539.000,5581.000
5574.000,5624.000,5591.000
5645.000,5611.000,5580.000
5648.000,5582.000,5638.000
5625.000,5672.000,5623.000
5628.000,5626.000,5646.000
5602.000,5672.000,5595.000
5631.000,5658.000,5652.000
5595.000,5609.000,5596.000
5670.000,5695.000,5572.000
5595.000,5710.000,5667.000
5620.000,5718.000,5685.000
5692.000,5701.000,5730.000
5674.000,5674.000,5762.000
5731.000,5652.000,5705.000
5757.000,5755.000,5711.000
5672.000,5685.000,5778.000
5711.000,5726.000,5697.000
5764.000,5751.000,5702.000
5730.000,5715.000,5735.000
5802.000,5725.000,5752.000
5703.000,5759.000,5692.000
5735.000,5810.000,5727.000
5838.000,5798.000,5712.000
5783.000,5806.000,5806.000
5839.000,5862.000,5784.000
5866.000,5764.000,5830.000
5827.000,5839.000,5860.000
5864.000,5936.000,5846.000
5794.000,5842.000,5855.000
5839.000,5892.000,5868.000
5908.000,5959.000,5904.000
5864.000,5876.000,5875.000
5907.000,5885.000,5934.000
5842.000,5885.000,5933.000
5905.000,5842.000,5962.000
5917.000,5891.000,5870.000
5907.000,5899.000,5871.000
5954.000,5877.000,5892.000
5908.000,5955.000,5934.000
5936.000,5964.000,5912.000
6039.000,5950.000,5925.000
5939.000,5931.000,5957.000
5958.000,5961.000,5974.000
6006.000,5985.000,6029.000
6020.000,6022.000,5974.000
5968.000,6015.000,5999.000
6020.000,5944.000,5940.000
6106.000,6027.000,6102.000
6084.000,5986.000,6000.000
6047.000,6085.000,6052.000
6044.000,6066.000,6039.000
6077.000,6117.000,6032.000
6065.000,6112.000,6103.000
6069.000,6169.000,6153.000
6078.000,6115.000,6121.000
6165.000,6114.000,6185.000
6190.000,6185.000,6197.000
6205.000,6244.000,6205.000
6223.000,6206.000,6224.000
6287.000,6262.000,6262.000
6396.000,6328.000,6344.000
6376.000,6359.000,6298.000
6351.000,6493.000,6421.000
6493.000,6437.000,6449.000
6578.000,6569.000,6576.000
6628.000,6637.000,6660.000
6685.000,6673.000,6664.000
6706.000,6750.000,6766.000
6765.000,6801.000,6836.000
6857.000,6908.000,6889.000
6979.000,6933.000,7000.000
7086.000,7055.000,6934.000
6997.000,7005.000,7030.000
7156.000,7102.000,7054.000
7078.000,7094.000,7038.000
7164.000,7026.000,7015.000
7014.000,6928.000,7097.000
6948.000,7018.000,7044.000
6975.000,7001.000,6928.000
7037.000,6884.000,6970.000
6961.000,6901.000,6956.000
6809.000,6832.000,6737.000
6695.000,6784.000,6801.000
6673.000,6637.000,6723.000
6687.000,6678.000,6617.000
6621.000,6558.000,6550.000
6551.000,6464.000,6528.000
6561.000,6506.000,6504.000
6418.000,6402.000,6438.000
6440.000,6403.000,6394.000
6313.000,6353.000,6324.000
6358.000,6371.000,6404.000
6264.000,6335.000,6339.000
6304.000,6252.000,6253.000
6225.000,6294.000,6240.000
6231.000,6246.000,6212.000
6167.000,6154.000,6241.000
6139.000,6227.000,6229.000
6108.000,6149.000,6129.000
6174.000,6157.000,6164.000
6162.000,6123.000,6091.000
6150.000,6143.000,6130.000
6102.000,6117.000,6104.000
6104.000,6148.000,6072.000
6104.000,6160.000,6072.000
6088.000,6050.000,6087.000
6202.000,6132.000,6034.000
6132.000,6057.000,6147.000
6058.000,6133.000,6112.000
6114.000,6156.000,6070.000
6148.000,6051.000,6115.000
6089.000,6102.000,6081.000
6189.000,6135.000,6124.000
6144.000,6154.000,6119.000
6123.000,6108.000,6122.000
6095.000,6048.000,6178.000
6165.000,6126.000,6126.000
6111.000,6085.000,6141.000
6139.000,6108.000,6132.000
6101.000,6102.000,6138.000
6046.000,6120.000,6091.000
6165.000,6137.000,6055.000
6090.000,6109.000,6132.000
6117.000,6051.000,6040.000
6062.000,6022.000,6163.000
6130.000,6023.000,6053.000
6036.000,5983.000,6045.000
6041.000,6013.000,6055.000
6018.000,6002.000,5984.000
5920.000,6026.000,5993.000
5908.000,5935.000,6019.000
5945.000,5929.000,5963.000
5863.000,5902.000,5928.000
5889.000,5888.000,5914.000
5832.000,5792.000,5808.000
5842.000,5758.000,5813.000
5760.000,5869.000,5785.000
5751.000,5791.000,5803.000
5746.000,5764.000,5758.000
5761.000,5755.000,5784.000
5778.000,5753.000,5735.000
5760.000,5745.000,5725.000
5714.000,5735.000,5701.000
5752.000,5675.000,5811.000
5703.000,5725.000,5754.000
5695.000,5754.000,5769.000
5744.000,5807.000,5753.000
5728.000,5765.000,5724.000
5700.000,5747.000,5650.000
5645.000,5689.000,5665.000
5682.000,5626.000,5671.000
5669.000,5667.000,5650.000
5727.000,5649.000,5719.000
5630.000,5686.000,5653.000
5685.000,5685.000,5651.000
5661.000,5665.000,5643.000
5642.000,5643.000,5652.000
5619.000,5667.000,5703.000
5597.000,5621.000,5579.000
5614.000,5593.000,5528.000
5518.000,5598.000,5615.000
5671.000,5634.000,5551.000
5632.000,5636.000,5544.000
5649.000,5587.000,5607.000
5683.000,5643.000,5667.000
5623.000,5596.000,5580.000
5636.000,5592.000,5699.000
5645.000,5592.000,5623.000
5631.000,5576.000,5678.000
5651.000,5611.000,5688.000
5734.000,5688.000,5601.000
5683.000,5717.000,5634.000
5720.000,5659.000,5715.000
5655.000,5682.000,5662.000
5666.000,5718.000,5660.000
5649.000,5644.000,5655.000
5652.000,5688.000,5698.000
5703.000,5678.000,5668.000
5724.000,5681.000,5698.000
5705.000,5682.000,5658.000
5691.000,5670.000,5647.000
5661.000,5657.000,5652.000
5676.000,5715.000,5663.000
5709.000,5669.000,5654.000
5747.000,5707.000,5712.000
5668.000,5739.000,5735.000
5693.000,5745.000,5747.000
5703.000,5654.000,5704.000
5759.000,5704.000,5692.000
5716.000,5743.000,5693.000
5679.000,5714.000,5688.000
5682.000,5691.000,5743.000
5646.000,5619.000,5614.000
5661.000,5704.000,5694.000
5677.000,5684.000,5676.000
5667.000,5667.000,5669.000
5696.000,5648.000,5654.000
5666.000,5616.000,5643.000
5640.000,5731.000,5668.000
5659.000,5723.000,5713.000
5790.000,5639.000,5675.000
5694.000,5690.000,5694.000
5794.000,5702.000,5677.000
5776.000,5700.000,5757.000
5773.000,5733.000,5686.000
5700.000,5725.000,5750.000
5764.000,5735.000,5772.000
5699.000,5727.000,5683.000
5668.000,5771.000,5713.000
5791.000,5749.000,5648.000
5792.000,5726.000,5759.000
5640.000,5655.000,5638.000
5711.000,5723.000,5661.000
5697.000,5684.000,5736.000
5633.000,5673.000,5683.000
5650.000,5642.000,5523.000
5612.000,5686.000,5669.000
5694.000,5634.000,5667.000
5540.000,5692.000,5595.000
5661.000,5684.000,5605.000
5641.000,5603.000,5575.000
5682.000,5574.000,5610.000
5606.000,5615.000,5616.000
5565.000,5669.000,5692.000
5578.000,5622.000,5573.000
5657.000,5592.000,5607.000
5601.000,5665.000,5564.000
5622.000,5545.000,5585.000
5570.000,5522.000,5526.000
5632.000,5563.000,5613.000
5605.000,5566.000,5615.000
5621.000,5521.000,5553.000
5541.000,5588.000,5626.000
5596.000,5522.000,5623.000
5555.000,5499.000,5600.000
5595.000,5572.000,5588.000
5586.000,5619.000,5608.000
5524.000,5533.000,5568.000
5546.000,5562.000,5570.000
5572.000,5549.000,5599.000
5582.000,5591.000,5549.000
5644.000,5604.000,5614.000
5603.000,5585.000,5674.000
5547.000,5574.000,5573.000
5583.000,5600.000,5550.000
5626.000,5605.000,5570.000
5545.000,5554.000,5552.000
5566.000,5518.000,5523.000
5523.000,5557.000,5488.000
5589.000,5552.000,5590.000
5550.000,5588.000,5595.000
5554.000,5565.000,5576.000
5566.000,5566.000,5575.000
5496.000,5512.000,5523.000
5567.000,5484.000,5593.000
5612.000,5619.000,5534.000
5575.000,5628.000,5551.000
5564.000,5575.000,5526.000
5597.000,5611.000,5606.000
5606.000,5617.000,5561.000
5585.000,5545.000,5599.000
5565.000,5594.000,5664.000
5640.000,5564.000,5568.000
5537.000,5587.000,5604.000
5568.000,5678.000,5667.000
5640.000,5565.000,5610.000
5622.000,5629.000,5612.000
5567.000,5620.000,5570.000
5543.000,5584.000,5541.000
5637.000,5586.000,5636.000
5601.000,5605.000,5505.000
5555.000,5534.000,5556.000
5596.000,5630.000,5567.000
5582.000,5596.000,5616.000
5615.000,5555.000,5610.000
5584.000,5653.000,5651.000
5680.000,5668.000,5647.000
5652.000,5621.000,5666.000
5645.000,5636.000,5609.000
5609.000,5638.000,5655.000
5587.000,5497.000,5672.000
5615.000,5585.000,5621.000
5572.000,5633.000,5641.000
5581.000,5635.000,5580.000
5573.000,5601.000,5582.000
5623.000,5584.000,5533.000
5517.000,5584.000,5610.000
5636.000,5615.000,5604.000
5582.000,5555.000,5610.000
5594.000,5569.000,5613.000
5570.000,5627.000,5583.000
5548.000,5547.000,5596.000
5628.000,5643.000,5534.000
5559.000,5614.000,5653.000
5511.000,5620.000,5568.000
5675.000,5560.000,5611.000
5597.000,5697.000,5663.000
5618.000,5599.000,5573.000
5512.000,5586.000,5632.000
5637.000,5596.000,5561.000
5615.000,5612.000,5546.000
5544.000,5566.000,5576.000
5667.000,5576.000,5609.000
5612.000,5672.000,5641.000
5508.000,5594.000,5609.000
5646.000,5558.000,5577.000
5627.000,5632.000,5579.000
5647.000,5563.000,5577.000
5613.000,5613.000,5629.000
5621.000,5639.000,5623.000
5558.000,5602.000,5573.000
5634.000,5586.000,5623.000
5601.000,5594.000,5595.000
5615.000,5603.000,5594.000
5513.000,5513.000,5522.000
5675.000,5621.000,5626.000
5639.000,5621.000,5597.000
