Focus Mode,Read Mode,Exposure Time (sec),Number of Frames,Start Y,End Y,Date,Time,Position (microns)
Single Acquisition,Spectrum,20.000000,3,105,125,2/11/2021,6:00:34 PM,-3494.010000,0.000000,221.990000,

1263.000,1264.000,1269.000
1270.000,1278.000,1268.000
1273.000,1270.000,1271.000
1269.000,1265.000,1281.000
1277.000,1268.000,1268.000
1269.000,1279.000,1270.000
1262.000,1282.000,1273.000
1267.000,1274.000,1263.000
1266.000,1270.000,1270.000
1271.000,1271.000,1272.000
1271.000,1270.000,1276.000
1271.000,1276.000,1278.000
1274.000,1278.000,1276.000
1276.000,1271.000,1270.000
1277.000,1281.000,1271.000
1273.000,1285.000,1274.000
1270.000,1276.000,1271.000
1278.000,1287.000,1284.000
1274.000,1281.000,1282.000
1284.000,1287.000,1292.000
1278.000,1290.000,1289.000
1285.000,1287.000,1297.000
1279.000,1286.000,1286.000
1289.000,1293.000,1289.000
1289.000,1293.000,1286.000
1298.000,1285.000,1288.000
1293.000,1308.000,1300.000
1300.000,1303.000,1305.000
1309.000,1303.000,1295.000
1314.000,1306.000,1304.000
1307.000,1310.000,1307.000
1309.000,1314.000,1321.000
1305.000,1321.000,1309.000
1315.000,1311.000,1307.000
1318.000,1304.000,1320.000
1316.000,1326.000,1315.000
1336.000,1328.000,1328.000
1335.000,1316.000,1321.000
1331.000,1336.000,1337.000
1338.000,1345.000,1340.000
1333.000,1339.000,1356.000
1336.000,1336.000,1351.000
1368.000,1338.000,1332.000
1345.000,1347.000,1353.000
1349.000,1358.000,1347.000
1371.000,1362.000,1355.000
1356.000,1371.000,1363.000
1382.000,1378.000,1368.000
1382.000,1385.000,1384.000
1375.000,1390.000,1377.000
1391.000,1406.000,1393.000
1400.000,1403.000,1397.000
1418.000,1401.000,1412.000
1426.000,1408.000,1421.000
1421.000,1431.000,1422.000
1439.000,1435.000,1439.000
1431.000,1427.000,1435.000
1445.000,1443.000,1440.000
1436.000,1457.000,1463.000
1462.000,1451.000,1450.000
1443.000,1467.000,1459.000
1474.000,1448.000,1469.000
1462.000,1458.000,1453.000
1463.000,1446.000,1474.000
1471.000,1467.000,1476.000
1481.000,1483.000,1481.000
1499.000,1485.000,1491.000
1495.000,1517.000,1498.000
1512.000,1517.000,1530.000
1529.000,1527.000,1543.000
1541.000,1556.000,1537.000
1556.000,1567.000,1563.000
1579.000,1593.000,1579.000
1600.000,1585.000,1570.000
1605.000,1602.000,1622.000
1656.000,1652.000,1641.000
1656.000,1660.000,1658.000
1692.000,1707.000,1667.000
1716.000,1715.000,1707.000
1719.000,1745.000,1740.000
1738.000,1750.000,1753.000
1784.000,1763.000,1751.000
1784.000,1800.000,1803.000
1772.000,1802.000,1756.000
1790.000,1823.000,1796.000
1838.000,1845.000,1814.000
1871.000,1856.000,1828.000
1848.000,1893.000,1861.000
1860.000,1911.000,1876.000
1923.000,1895.000,1914.000
1920.000,1940.000,1931.000
1977.000,1982.000,1962.000
1992.000,2003.000,1988.000
2075.000,2073.000,2075.000
2140.000,2151.000,2087.000
2206.000,2207.000,2184.000
2269.000,2356.000,2280.000
2424.000,2480.000,2433.000
2581.000,2662.000,2521.000
2775.000,2865.000,2761.000
3047.000,3143.000,2995.000
3244.000,3403.000,3206.000
3534.000,3726.000,3508.000
3856.000,4034.000,3735.000
4066.000,4230.000,3935.000
4323.000,4425.000,4153.000
4340.000,4653.000,4269.000
4478.000,4717.000,4438.000
4544.000,4850.000,4347.000
4456.000,4813.000,4333.000
4327.000,4632.000,4276.000
4246.000,4463.000,4116.000
4020.000,4201.000,3849.000
3801.000,3944.000,3711.000
3696.000,3753.000,3554.000
3624.000,3644.000,3540.000
3696.000,3695.000,3587.000
3774.000,3771.000,3608.000
3928.000,3991.000,3707.000
4120.000,4199.000,3956.000
4572.000,4666.000,4423.000
5443.000,5387.000,5028.000
7098.000,6971.000,6363.000
11068.000,10615.000,9937.000
23787.000,22584.000,21471.000
61834.000,61818.000,61816.000
62262.000,62262.000,62262.000
62176.000,62183.000,62178.000
62114.000,62114.000,62115.000
62122.000,62126.000,62126.000
62114.000,62125.000,62119.000
62093.000,62099.000,62100.000
62091.000,62091.000,62095.000
62100.000,62101.000,62097.000
62088.000,62091.000,62090.000
62087.000,62086.000,62081.000
62091.000,62087.000,62091.000
62086.000,62086.000,62091.000
62080.000,62086.000,62086.000
62079.000,62083.000,62086.000
62084.000,62083.000,62088.000
62080.000,62086.000,62083.000
62077.000,62082.000,62083.000
62084.000,62082.000,62089.000
62077.000,62082.000,62084.000
62076.000,62082.000,62082.000
62079.000,62082.000,62081.000
62079.000,62087.000,62082.000
62079.000,62083.000,62082.000
62073.000,62084.000,62083.000
62073.000,62075.000,62084.000
62076.000,62081.000,62080.000
62081.000,62078.000,62080.000
62078.000,62084.000,62076.000
62075.000,62082.000,62076.000
62078.000,62081.000,62084.000
62081.000,62081.000,62077.000
62082.000,62082.000,62079.000
62078.000,62078.000,62081.000
62078.000,62077.000,62080.000
62079.000,62078.000,62085.000
62078.000,62082.000,62084.000
62078.000,62083.000,62078.000
62076.000,62074.000,62077.000
62076.000,62079.000,62076.000
62079.000,62083.000,62076.000
62078.000,62081.000,62079.000
62072.000,62085.000,62079.000
62081.000,62082.000,62078.000
62078.000,62081.000,62076.000
62077.000,62083.000,62082.000
62080.000,62085.000,62082.000
62078.000,62088.000,62077.000
62080.000,62082.000,62079.000
62080.000,62082.000,62087.000
62082.000,62095.000,62100.000
62106.000,62114.000,62114.000
62065.000,42837.000,22916.000
1694.000,1627.000,1591.000
1567.000,1549.000,1557.000
1551.000,1506.000,1559.000
1524.000,1523.000,1520.000
1516.000,1538.000,1500.000
1494.000,1497.000,1484.000
1488.000,1503.000,1496.000
1492.000,1481.000,1468.000
1496.000,1465.000,1475.000
1469.000,1483.000,1450.000
1463.000,1456.000,1459.000
1446.000,1455.000,1460.000
1442.000,1426.000,1441.000
1441.000,1442.000,1426.000
1436.000,1420.000,1430.000
1428.000,1414.000,1437.000
1419.000,1428.000,1428.000
1423.000,1414.000,1426.000
1409.000,1418.000,1418.000
1400.000,1393.000,1403.000
1413.000,1417.000,1419.000
1403.000,1402.000,1402.000
1407.000,1416.000,1398.000
1400.000,1394.000,1394.000
1389.000,1395.000,1395.000
1404.000,1390.000,1397.000
1399.000,1394.000,1400.000
1407.000,1384.000,1391.000
1397.000,1376.000,1382.000
1377.000,1387.000,1374.000
1377.000,1384.000,1378.000
1372.000,1353.000,1371.000
1375.000,1371.000,1368.000
1371.000,1375.000,1364.000
1351.000,1359.000,1364.000
1355.000,1356.000,1355.000
1361.000,1351.000,1360.000
1364.000,1371.000,1358.000
1355.000,1351.000,1367.000
1355.000,1348.000,1348.000
1362.000,1352.000,1348.000
1355.000,1360.000,1340.000
1348.000,1354.000,1346.000
1336.000,1349.000,1338.000
1331.000,1343.000,1344.000
1338.000,1344.000,1337.000
1331.000,1346.000,1343.000
1337.000,1344.000,1341.000
1337.000,1326.000,1339.000
1329.000,1334.000,1339.000
1332.000,1324.000,1320.000
1328.000,1337.000,1326.000
1329.000,1334.000,1320.000
1338.000,1315.000,1326.000
1327.000,1319.000,1338.000
1330.000,1319.000,1327.000
1334.000,1323.000,1326.000
1323.000,1307.000,1318.000
1320.000,1319.000,1325.000
1312.000,1323.000,1330.000
1316.000,1308.000,1309.000
1328.000,1305.000,1299.000
1314.000,1321.000,1307.000
1307.000,1310.000,1327.000
1309.000,1315.000,1311.000
1315.000,1313.000,1303.000
1305.000,1316.000,1307.000
1321.000,1315.000,1313.000
1307.000,1313.000,1308.000
1310.000,1306.000,1312.000
1309.000,1299.000,1306.000
1310.000,1307.000,1304.000
1305.000,1309.000,1305.000
1302.000,1303.000,1306.000
1297.000,1310.000,1306.000
1303.000,1304.000,1298.000
1304.000,1296.000,1302.000
1303.000,1302.000,1312.000
1304.000,1295.000,1295.000
1307.000,1304.000,1291.000
1299.000,1293.000,1298.000
1301.000,1291.000,1304.000
1293.000,1296.000,1301.000
1302.000,1306.000,1289.000
1300.000,1299.000,1294.000
1300.000,1293.000,1290.000
1296.000,1292.000,1300.000
1289.000,1294.000,1300.000
1290.000,1294.000,1297.000
1302.000,1295.000,1283.000
1291.000,1294.000,1286.000
1297.000,1297.000,1291.000
1291.000,1289.000,1291.000
1284.000,1287.000,1295.000
1287.000,1303.000,1290.000
1298.000,1291.000,1299.000
1282.000,1291.000,1290.000
1295.000,1300.000,1288.000
1293.000,1291.000,1302.000
1285.000,1294.000,1300.000
1301.000,1284.000,1281.000
1295.000,1291.000,1294.000
1290.000,1281.000,1299.000
1290.000,1300.000,1291.000
1290.000,1296.000,1293.000
1288.000,1286.000,1291.000
1297.000,1298.000,1295.000
1300.000,1307.000,1299.000
1304.000,1313.000,1309.000
1309.000,1309.000,1307.000
1305.000,1310.000,1297.000
1317.000,1304.000,1315.000
1313.000,1318.000,1311.000
1329.000,1313.000,1314.000
1316.000,1316.000,1313.000
1325.000,1322.000,1331.000
1331.000,1357.000,1345.000
1349.000,1346.000,1345.000
1369.000,1359.000,1357.000
1362.000,1374.000,1375.000
1391.000,1392.000,1376.000
1401.000,1406.000,1396.000
1427.000,1420.000,1426.000
1456.000,1438.000,1444.000
1468.000,1481.000,1472.000
1523.000,1507.000,1517.000
1564.000,1548.000,1531.000
1590.000,1602.000,1606.000
1653.000,1682.000,1645.000
1724.000,1694.000,1720.000
1818.000,1820.000,1792.000
1885.000,1881.000,1894.000
2019.000,2004.000,2002.000
2113.000,2176.000,2121.000
2254.000,2273.000,2249.000
2427.000,2447.000,2430.000
2615.000,2619.000,2589.000
2778.000,2792.000,2808.000
3054.000,3019.000,3032.000
3294.000,3299.000,3265.000
3527.000,3504.000,3527.000
3740.000,3733.000,3749.000
4001.000,4042.000,3980.000
4267.000,4279.000,4228.000
4503.000,4493.000,4447.000
4747.000,4690.000,4741.000
4921.000,4987.000,4943.000
5043.000,5072.000,5053.000
5215.000,5207.000,5187.000
5374.000,5359.000,5373.000
5428.000,5437.000,5347.000
5538.000,5467.000,5474.000
5569.000,5511.000,5440.000
5495.000,5527.000,5539.000
5547.000,5538.000,5482.000
5587.000,5596.000,5569.000
5593.000,5534.000,5544.000
5638.000,5538.000,5575.000
5636.000,5627.000,5604.000
5556.000,5548.000,5557.000
5511.000,5582.000,5517.000
5485.000,5513.000,5504.000
5535.000,5530.000,5547.000
5552.000,5548.000,5579.000
5496.000,5535.000,5492.000
5529.000,5577.000,5519.000
5529.000,5465.000,5532.000
5570.000,5473.000,5544.000
5536.000,5575.000,5470.000
5549.000,5563.000,5512.000
5552.000,5571.000,5502.000
5557.000,5494.000,5567.000
5531.000,5501.000,5546.000
5520.000,5548.000,5455.000
5477.000,5532.000,5500.000
5516.000,5498.000,5536.000
5556.000,5577.000,5533.000
5574.000,5553.000,5540.000
5475.000,5517.000,5526.000
5498.000,5532.000,5507.000
5541.000,5524.000,5518.000
5485.000,5470.000,5538.000
5545.000,5535.000,5517.000
5475.000,5488.000,5543.000
5518.000,5545.000,5556.000
5511.000,5523.000,5510.000
5545.000,5526.000,5462.000
5460.000,5513.000,5483.000
5549.000,5559.000,5541.000
5507.000,5575.000,5481.000
5460.000,5534.000,5624.000
5592.000,5591.000,5566.000
5593.000,5581.000,5535.000
5558.000,5589.000,5509.000
5609.000,5587.000,5600.000
5588.000,5622.000,5511.000
5601.000,5616.000,5621.000
5611.000,5602.000,5513.000
5675.000,5604.000,5593.000
5679.000,5616.000,5614.000
5685.000,5723.000,5597.000
5683.000,5754.000,5636.000
5689.000,5656.000,5707.000
5727.000,5660.000,5663.000
5752.000,5695.000,5701.000
5740.000,5747.000,5719.000
5702.000,5697.000,5710.000
5771.000,5705.000,5646.000
5726.000,5711.000,5797.000
5771.000,5759.000,5696.000
5749.000,5739.000,5686.000
5826.000,5743.000,5774.000
5732.000,5763.000,5747.000
5780.000,5759.000,5735.000
5776.000,5807.000,5820.000
5779.000,5741.000,5752.000
5786.000,5761.000,5806.000
5811.000,5791.000,5760.000
5794.000,5769.000,5802.000
5925.000,5845.000,5824.000
5909.000,5877.000,5838.000
5788.000,5919.000,5839.000
5864.000,5869.000,5839.000
5878.000,5836.000,5772.000
5859.000,5811.000,5801.000
5897.000,5834.000,5814.000
5852.000,5847.000,5831.000
5867.000,5914.000,5835.000
5965.000,5855.000,5832.000
5946.000,5908.000,5885.000
6012.000,5979.000,5936.000
5961.000,5964.000,5901.000
6011.000,6016.000,5949.000
5973.000,5967.000,6000.000
6041.000,5977.000,5920.000
6014.000,6034.000,5904.000
6061.000,5974.000,5942.000
6024.000,5982.000,5966.000
6062.000,6046.000,6009.000
6045.000,6012.000,6059.000
6078.000,6000.000,6016.000
6023.000,5977.000,6027.000
6047.000,6058.000,5955.000
6005.000,5981.000,6072.000
6046.000,6146.000,6000.000
6036.000,6071.000,6051.000
6040.000,6030.000,6082.000
6113.000,6086.000,6080.000
6036.000,6017.000,6092.000
6090.000,6145.000,6096.000
6151.000,6011.000,6063.000
6080.000,6127.000,6088.000
6160.000,6151.000,6097.000
6131.000,6150.000,6102.000
6201.000,6113.000,6105.000
6124.000,6171.000,6195.000
6238.000,6182.000,6239.000
6237.000,6236.000,6270.000
6270.000,6219.000,6168.000
6299.000,6171.000,6225.000
6344.000,6306.000,6300.000
6366.000,6291.000,6296.000
6325.000,6290.000,6289.000
6353.000,6277.000,6263.000
6427.000,6346.000,6321.000
6448.000,6403.000,6351.000
6555.000,6509.000,6310.000
6534.000,6507.000,6498.000
6651.000,6586.000,6580.000
6735.000,6636.000,6674.000
6714.000,6646.000,6641.000
6745.000,6755.000,6722.000
6855.000,6817.000,6864.000
6899.000,6927.000,6888.000
7099.000,6985.000,6958.000
7067.000,7051.000,7020.000
7167.000,7103.000,7106.000
7243.000,7125.000,7215.000
7229.000,7134.000,7222.000
7201.000,7308.000,7299.000
7231.000,7297.000,7253.000
7324.000,7296.000,7311.000
7222.000,7255.000,7248.000
7243.000,7252.000,7215.000
7248.000,7201.000,7094.000
7139.000,7037.000,7094.000
7077.000,7059.000,7040.000
7031.000,6930.000,6987.000
6938.000,6943.000,6912.000
6914.000,6870.000,6871.000
6855.000,6902.000,6845.000
6791.000,6774.000,6652.000
6691.000,6651.000,6668.000
6682.000,6647.000,6630.000
6618.000,6533.000,6566.000
6579.000,6514.000,6495.000
6542.000,6501.000,6544.000
6420.000,6431.000,6553.000
6482.000,6500.000,6383.000
6379.000,6446.000,6425.000
6493.000,6430.000,6468.000
6289.000,6407.000,6404.000
6378.000,6371.000,6363.000
6333.000,6362.000,6234.000
6325.000,6359.000,6295.000
6274.000,6293.000,6323.000
6293.000,6323.000,6277.000
6321.000,6336.000,6191.000
6268.000,6271.000,6279.000
6268.000,6298.000,6310.000
6247.000,6304.000,6196.000
6251.000,6209.000,6200.000
6176.000,6207.000,6170.000
6195.000,6248.000,6215.000
6265.000,6147.000,6219.000
6175.000,6256.000,6293.000
6213.000,6207.000,6273.000
6301.000,6204.000,6174.000
6249.000,6308.000,6230.000
6219.000,6250.000,6202.000
6259.000,6257.000,6247.000
6250.000,6140.000,6291.000
6240.000,6350.000,6236.000
6330.000,6286.000,6263.000
6218.000,6147.000,6233.000
6310.000,6309.000,6231.000
6295.000,6212.000,6204.000
6296.000,6263.000,6192.000
6242.000,6235.000,6261.000
6237.000,6234.000,6252.000
6245.000,6144.000,6155.000
6152.000,6218.000,6245.000
6169.000,6177.000,6169.000
6133.000,6160.000,6122.000
6020.000,6127.000,6046.000
6082.000,6110.000,6039.000
6074.000,6089.000,6056.000
6111.000,6141.000,6068.000
6019.000,6028.000,6008.000
5969.000,5928.000,6003.000
5966.000,5952.000,5921.000
5953.000,5908.000,5874.000
6006.000,5924.000,5936.000
5962.000,5875.000,5929.000
6010.000,5889.000,5817.000
5862.000,5870.000,5875.000
5872.000,5823.000,5862.000
5927.000,5886.000,5852.000
5898.000,5851.000,5813.000
5807.000,5839.000,5847.000
5826.000,5846.000,5840.000
5880.000,5831.000,5782.000
5819.000,5828.000,5802.000
5799.000,5825.000,5798.000
5865.000,5820.000,5869.000
5784.000,5833.000,5762.000
5826.000,5801.000,5775.000
5822.000,5764.000,5799.000
5805.000,5770.000,5804.000
5808.000,5746.000,5762.000
5836.000,5759.000,5743.000
5730.000,5741.000,5716.000
5794.000,5647.000,5733.000
5748.000,5731.000,5696.000
5737.000,5748.000,5670.000
5771.000,5792.000,5609.000
5755.000,5737.000,5685.000
5777.000,5768.000,5739.000
5767.000,5724.000,5775.000
5707.000,5720.000,5727.000
5706.000,5703.000,5673.000
5769.000,5685.000,5733.000
5667.000,5765.000,5725.000
5739.000,5760.000,5763.000
5779.000,5754.000,5758.000
5758.000,5706.000,5760.000
5773.000,5777.000,5696.000
5788.000,5777.000,5678.000
5770.000,5754.000,5792.000
5813.000,5776.000,5711.000
5755.000,5743.000,5766.000
5769.000,5760.000,5720.000
5779.000,5792.000,5714.000
5744.000,5693.000,5755.000
5806.000,5796.000,5803.000
5846.000,5820.000,5755.000
5838.000,5782.000,5798.000
5755.000,5769.000,5779.000
5769.000,5738.000,5739.000
5792.000,5822.000,5759.000
5786.000,5767.000,5778.000
5847.000,5740.000,5811.000
5807.000,5836.000,5822.000
5812.000,5860.000,5763.000
5775.000,5848.000,5803.000
5808.000,5868.000,5710.000
5755.000,5832.000,5753.000
5821.000,5758.000,5831.000
5775.000,5779.000,5725.000
5808.000,5784.000,5760.000
5784.000,5823.000,5824.000
5727.000,5776.000,5743.000
5810.000,5763.000,5759.000
5783.000,5820.000,5743.000
5791.000,5793.000,5845.000
5837.000,5831.000,5795.000
5773.000,5764.000,5816.000
5895.000,5810.000,5781.000
5844.000,5776.000,5838.000
5913.000,5841.000,5881.000
5884.000,5783.000,5771.000
5828.000,5800.000,5820.000
5871.000,5855.000,5856.000
5854.000,5823.000,5832.000
5833.000,5825.000,5825.000
5832.000,5758.000,5799.000
5766.000,5860.000,5828.000
5801.000,5836.000,5818.000
5844.000,5755.000,5756.000
5817.000,5759.000,5750.000
5780.000,5760.000,5729.000
5755.000,5764.000,5752.000
5722.000,5662.000,5709.000
5775.000,5752.000,5732.000
5749.000,5762.000,5794.000
5732.000,5826.000,5737.000
5739.000,5705.000,5739.000
5732.000,5741.000,5778.000
5718.000,5648.000,5731.000
5752.000,5711.000,5706.000
5699.000,5695.000,5713.000
5733.000,5643.000,5783.000
5778.000,5689.000,5731.000
5738.000,5625.000,5660.000
5670.000,5690.000,5619.000
5673.000,5685.000,5699.000
5721.000,5688.000,5647.000
5737.000,5731.000,5640.000
5683.000,5635.000,5619.000
5676.000,5707.000,5700.000
5717.000,5665.000,5647.000
5664.000,5636.000,5712.000
5718.000,5725.000,5715.000
5704.000,5748.000,5682.000
5742.000,5685.000,5684.000
5684.000,5690.000,5703.000
5702.000,5691.000,5694.000
5705.000,5771.000,5720.000
5714.000,5684.000,5690.000
5719.000,5648.000,5663.000
5694.000,5706.000,5612.000
5745.000,5620.000,5657.000
5745.000,5626.000,5701.000
5735.000,5596.000,5661.000
5691.000,5715.000,5632.000
5650.000,5622.000,5693.000
5707.000,5665.000,5616.000
5650.000,5682.000,5682.000
5668.000,5666.000,5647.000
5680.000,5654.000,5590.000
5670.000,5674.000,5682.000
5665.000,5664.000,5615.000
5657.000,5685.000,5615.000
5697.000,5691.000,5719.000
5689.000,5655.000,5689.000
5600.000,5704.000,5705.000
5736.000,5674.000,5718.000
5660.000,5732.000,5618.000
5758.000,5614.000,5707.000
5713.000,5682.000,5651.000
5707.000,5706.000,5731.000
5651.000,5702.000,5634.000
5711.000,5666.000,5629.000
5710.000,5711.000,5679.000
5682.000,5591.000,5581.000
5736.000,5654.000,5654.000
5739.000,5716.000,5660.000
5698.000,5641.000,5669.000
5714.000,5781.000,5701.000
5681.000,5735.000,5720.000
5699.000,5763.000,5679.000
5652.000,5719.000,5698.000
5667.000,5660.000,5696.000
5730.000,5714.000,5664.000
5742.000,5641.000,5670.000
5714.000,5683.000,5751.000
5695.000,5736.000,5626.000
5681.000,5690.000,5676.000
5706.000,5670.000,5629.000
5769.000,5715.000,5681.000
5695.000,5726.000,5714.000
5647.000,5703.000,5711.000
5664.000,5631.000,5687.000
5682.000,5706.000,5643.000
5699.000,5697.000,5725.000
5617.000,5687.000,5668.000
5686.000,5726.000,5694.000
5730.000,5697.000,5589.000
5746.000,5708.000,5734.000
5670.000,5722.000,5637.000
5745.000,5723.000,5671.000
5674.000,5646.000,5740.000
5668.000,5655.000,5658.000
5715.000,5680.000,5683.000
5717.000,5672.000,5650.000
5736.000,5663.000,5655.000
5697.000,5752.000,5744.000
5746.000,5721.000,5656.000
5758.000,5692.000,5656.000
5782.000,5694.000,5666.000
5720.000,5678.000,5676.000
5724.000,5680.000,5690.000
5646.000,5741.000,5673.000
5806.000,5670.000,5700.000
5701.000,5713.000,5715.000
5748.000,5629.000,5694.000
5738.000,5666.000,5669.000
5702.000,5709.000,5584.000
5628.000,5675.000,5741.000
5677.000,5670.000,5653.000
5645.000,5633.000,5656.000
5670.000,5735.000,5663.000
5692.000,5720.000,5686.000
