Focus Mode,Read Mode,Exposure Time (sec),Number of Frames,Start Y,End Y,Date,Time,Position (microns)
Single Acquisition,Spectrum,20.000000,3,105,125,2/11/2021,5:51:13 PM,-3494.010000,0.000000,221.990000,

1265.000,1269.000,1277.000
1262.000,1266.000,1278.000
1268.000,1266.000,1276.000
1270.000,1266.000,1270.000
1268.000,1274.000,1267.000
1269.000,1263.000,1265.000
1270.000,1266.000,1273.000
1267.000,1265.000,1265.000
1269.000,1271.000,1265.000
1269.000,1276.000,1273.000
1268.000,1277.000,1273.000
1271.000,1270.000,1273.000
1267.000,1274.000,1268.000
1275.000,1268.000,1275.000
1279.000,1272.000,1279.000
1280.000,1281.000,1273.000
1274.000,1273.000,1273.000
1277.000,1280.000,1272.000
1277.000,1282.000,1280.000
1276.000,1274.000,1282.000
1285.000,1286.000,1283.000
1291.000,1280.000,1286.000
1283.000,1297.000,1281.000
1285.000,1285.000,1301.000
1300.000,1288.000,1292.000
1296.000,1287.000,1289.000
1296.000,1295.000,1295.000
1296.000,1294.000,1295.000
1302.000,1311.000,1295.000
1295.000,1299.000,1297.000
1306.000,1305.000,1300.000
1313.000,1311.000,1317.000
1297.000,1304.000,1315.000
1309.000,1312.000,1303.000
1318.000,1309.000,1318.000
1329.000,1316.000,1321.000
1316.000,1336.000,1332.000
1331.000,1316.000,1319.000
1329.000,1322.000,1332.000
1320.000,1335.000,1331.000
1331.000,1334.000,1340.000
1325.000,1331.000,1343.000
1329.000,1345.000,1343.000
1359.000,1339.000,1345.000
1348.000,1362.000,1361.000
1367.000,1360.000,1353.000
1356.000,1369.000,1368.000
1373.000,1364.000,1362.000
1378.000,1382.000,1384.000
1378.000,1371.000,1375.000
1387.000,1380.000,1390.000
1403.000,1393.000,1405.000
1414.000,1401.000,1403.000
1418.000,1409.000,1398.000
1419.000,1414.000,1437.000
1433.000,1421.000,1424.000
1427.000,1440.000,1433.000
1442.000,1444.000,1416.000
1437.000,1445.000,1434.000
1436.000,1427.000,1464.000
1449.000,1450.000,1462.000
1444.000,1467.000,1438.000
1456.000,1446.000,1451.000
1438.000,1447.000,1445.000
1462.000,1452.000,1451.000
1474.000,1484.000,1475.000
1451.000,1453.000,1472.000
1495.000,1470.000,1490.000
1500.000,1508.000,1490.000
1516.000,1505.000,1506.000
1518.000,1512.000,1516.000
1544.000,1535.000,1546.000
1557.000,1546.000,1571.000
1578.000,1558.000,1603.000
1603.000,1603.000,1599.000
1617.000,1617.000,1619.000
1637.000,1629.000,1634.000
1669.000,1661.000,1663.000
1647.000,1659.000,1667.000
1668.000,1669.000,1682.000
1699.000,1686.000,1708.000
1707.000,1717.000,1726.000
1750.000,1712.000,1723.000
1741.000,1736.000,1741.000
1749.000,1740.000,1789.000
1782.000,1761.000,1793.000
1800.000,1772.000,1805.000
1824.000,1787.000,1833.000
1806.000,1837.000,1827.000
1824.000,1847.000,1860.000
1837.000,1863.000,1856.000
1876.000,1848.000,1919.000
1911.000,1933.000,1924.000
1954.000,1942.000,1948.000
1983.000,1979.000,2044.000
2035.000,2027.000,2042.000
2083.000,2107.000,2139.000
2177.000,2189.000,2255.000
2310.000,2248.000,2329.000
2443.000,2384.000,2473.000
2543.000,2505.000,2637.000
2688.000,2696.000,2764.000
2860.000,2846.000,2927.000
3051.000,2972.000,3088.000
3131.000,3086.000,3267.000
3255.000,3127.000,3306.000
3269.000,3195.000,3377.000
3318.000,3249.000,3374.000
3344.000,3323.000,3386.000
3345.000,3267.000,3408.000
3275.000,3190.000,3384.000
3237.000,3191.000,3348.000
3227.000,3141.000,3281.000
3169.000,3083.000,3197.000
3150.000,3092.000,3168.000
3153.000,3176.000,3233.000
3217.000,3166.000,3308.000
3399.000,3380.000,3363.000
3494.000,3545.000,3587.000
3925.000,3964.000,3963.000
4468.000,4552.000,4633.000
5724.000,5799.000,5989.000
8936.000,8907.000,9334.000
18981.000,17867.000,19130.000
61808.000,61791.000,61786.000
62263.000,62263.000,62267.000
62176.000,62174.000,62180.000
62110.000,62098.000,62112.000
62116.000,62119.000,62120.000
62115.000,62119.000,62117.000
62091.000,62089.000,62091.000
62090.000,62090.000,62090.000
62096.000,62095.000,62094.000
62087.000,62086.000,62083.000
62078.000,62083.000,62079.000
62088.000,62087.000,62083.000
62084.000,62089.000,62083.000
62086.000,62082.000,62085.000
62076.000,62078.000,62080.000
62080.000,62083.000,62079.000
62081.000,62076.000,62076.000
62074.000,62076.000,62082.000
62080.000,62078.000,62077.000
62080.000,62078.000,62074.000
62075.000,62078.000,62080.000
62075.000,62076.000,62077.000
62077.000,62077.000,62078.000
62073.000,62077.000,62076.000
62080.000,62073.000,62077.000
62076.000,62072.000,62077.000
62074.000,62071.000,62073.000
62076.000,62076.000,62076.000
62080.000,62071.000,62077.000
62081.000,62077.000,62077.000
62076.000,62075.000,62078.000
62076.000,62075.000,62078.000
62072.000,62075.000,62076.000
62077.000,62074.000,62079.000
62080.000,62074.000,62078.000
62073.000,62073.000,62081.000
62076.000,62075.000,62075.000
62075.000,62080.000,62076.000
62074.000,62075.000,62078.000
62077.000,62069.000,62079.000
62075.000,62074.000,62079.000
62076.000,62070.000,62079.000
62080.000,62071.000,62079.000
62080.000,62078.000,62071.000
62073.000,62076.000,62078.000
62073.000,62073.000,62075.000
62076.000,62074.000,62072.000
62076.000,62075.000,62079.000
62075.000,62077.000,62079.000
62078.000,62077.000,62073.000
62077.000,62084.000,62080.000
62087.000,62092.000,62099.000
62107.000,62108.000,62115.000
64529.000,48532.000,11363.000
1657.000,1619.000,1584.000
1539.000,1543.000,1542.000
1558.000,1549.000,1545.000
1531.000,1521.000,1522.000
1515.000,1505.000,1503.000
1495.000,1522.000,1492.000
1492.000,1482.000,1490.000
1487.000,1462.000,1464.000
1484.000,1470.000,1479.000
1466.000,1464.000,1457.000
1460.000,1454.000,1447.000
1444.000,1461.000,1463.000
1442.000,1433.000,1436.000
1432.000,1438.000,1441.000
1422.000,1447.000,1440.000
1423.000,1429.000,1431.000
1422.000,1422.000,1411.000
1415.000,1423.000,1408.000
1408.000,1403.000,1406.000
1413.000,1410.000,1402.000
1407.000,1410.000,1403.000
1411.000,1405.000,1394.000
1400.000,1399.000,1387.000
1406.000,1395.000,1388.000
1404.000,1396.000,1394.000
1398.000,1374.000,1383.000
1397.000,1387.000,1382.000
1387.000,1375.000,1378.000
1379.000,1379.000,1372.000
1390.000,1374.000,1377.000
1367.000,1376.000,1367.000
1373.000,1370.000,1385.000
1377.000,1359.000,1367.000
1375.000,1356.000,1357.000
1357.000,1359.000,1366.000
1360.000,1369.000,1355.000
1352.000,1344.000,1351.000
1354.000,1360.000,1346.000
1352.000,1343.000,1355.000
1347.000,1354.000,1337.000
1351.000,1361.000,1346.000
1338.000,1339.000,1343.000
1348.000,1343.000,1342.000
1343.000,1352.000,1355.000
1335.000,1342.000,1337.000
1329.000,1331.000,1338.000
1346.000,1343.000,1351.000
1345.000,1344.000,1346.000
1336.000,1337.000,1334.000
1323.000,1340.000,1324.000
1330.000,1333.000,1321.000
1330.000,1334.000,1326.000
1333.000,1340.000,1321.000
1332.000,1330.000,1331.000
1325.000,1332.000,1320.000
1328.000,1335.000,1317.000
1327.000,1321.000,1326.000
1326.000,1317.000,1305.000
1325.000,1318.000,1317.000
1317.000,1316.000,1315.000
1313.000,1321.000,1327.000
1316.000,1316.000,1320.000
1321.000,1315.000,1325.000
1303.000,1313.000,1318.000
1309.000,1300.000,1313.000
1305.000,1313.000,1312.000
1317.000,1320.000,1324.000
1305.000,1314.000,1298.000
1302.000,1310.000,1322.000
1303.000,1304.000,1322.000
1299.000,1303.000,1300.000
1307.000,1304.000,1292.000
1306.000,1296.000,1303.000
1303.000,1296.000,1302.000
1305.000,1305.000,1311.000
1299.000,1295.000,1302.000
1304.000,1299.000,1302.000
1307.000,1294.000,1302.000
1309.000,1304.000,1293.000
1295.000,1302.000,1294.000
1300.000,1302.000,1297.000
1308.000,1301.000,1294.000
1290.000,1293.000,1304.000
1299.000,1292.000,1290.000
1291.000,1291.000,1293.000
1303.000,1292.000,1299.000
1295.000,1291.000,1298.000
1295.000,1291.000,1290.000
1288.000,1291.000,1282.000
1299.000,1290.000,1288.000
1290.000,1293.000,1287.000
1293.000,1281.000,1282.000
1294.000,1293.000,1300.000
1294.000,1292.000,1291.000
1291.000,1290.000,1277.000
1291.000,1289.000,1299.000
1294.000,1288.000,1285.000
1292.000,1290.000,1299.000
1283.000,1289.000,1290.000
1301.000,1294.000,1286.000
1294.000,1291.000,1289.000
1287.000,1276.000,1301.000
1298.000,1292.000,1293.000
1289.000,1290.000,1287.000
1294.000,1298.000,1284.000
1287.000,1294.000,1292.000
1304.000,1302.000,1294.000
1297.000,1293.000,1305.000
1295.000,1303.000,1307.000
1300.000,1291.000,1302.000
1313.000,1306.000,1310.000
1318.000,1305.000,1308.000
1315.000,1311.000,1307.000
1321.000,1313.000,1339.000
1319.000,1315.000,1323.000
1332.000,1329.000,1334.000
1327.000,1349.000,1344.000
1346.000,1337.000,1343.000
1359.000,1356.000,1358.000
1360.000,1369.000,1369.000
1389.000,1387.000,1393.000
1404.000,1399.000,1393.000
1437.000,1423.000,1420.000
1458.000,1461.000,1431.000
1471.000,1464.000,1487.000
1493.000,1514.000,1503.000
1547.000,1548.000,1559.000
1593.000,1594.000,1593.000
1649.000,1631.000,1653.000
1722.000,1722.000,1732.000
1798.000,1810.000,1810.000
1890.000,1887.000,1876.000
1996.000,2008.000,1985.000
2121.000,2143.000,2107.000
2295.000,2218.000,2268.000
2423.000,2391.000,2420.000
2637.000,2598.000,2633.000
2835.000,2827.000,2813.000
3010.000,3067.000,3067.000
3248.000,3229.000,3252.000
3579.000,3549.000,3561.000
3750.000,3745.000,3728.000
4013.000,4065.000,3996.000
4265.000,4267.000,4257.000
4478.000,4591.000,4519.000
4719.000,4745.000,4717.000
4920.000,4868.000,4935.000
5039.000,5100.000,5107.000
5179.000,5169.000,5197.000
5317.000,5377.000,5349.000
5379.000,5417.000,5380.000
5491.000,5493.000,5425.000
5528.000,5474.000,5465.000
5557.000,5526.000,5587.000
5544.000,5479.000,5518.000
5574.000,5558.000,5542.000
5505.000,5579.000,5576.000
5505.000,5625.000,5570.000
5579.000,5504.000,5601.000
5610.000,5567.000,5571.000
5498.000,5542.000,5475.000
5544.000,5457.000,5539.000
5530.000,5530.000,5541.000
5566.000,5555.000,5525.000
5481.000,5474.000,5479.000
5612.000,5483.000,5554.000
5521.000,5548.000,5470.000
5554.000,5519.000,5451.000
5515.000,5553.000,5563.000
5508.000,5567.000,5512.000
5442.000,5540.000,5537.000
5522.000,5545.000,5572.000
5508.000,5431.000,5509.000
5482.000,5565.000,5495.000
5476.000,5533.000,5486.000
5513.000,5560.000,5426.000
5481.000,5545.000,5531.000
5514.000,5600.000,5531.000
5500.000,5526.000,5551.000
5467.000,5465.000,5497.000
5505.000,5544.000,5511.000
5438.000,5456.000,5493.000
5495.000,5597.000,5569.000
5515.000,5564.000,5514.000
5524.000,5583.000,5511.000
5511.000,5538.000,5499.000
5535.000,5540.000,5498.000
5549.000,5516.000,5504.000
5552.000,5534.000,5547.000
5567.000,5591.000,5530.000
5541.000,5565.000,5539.000
5573.000,5606.000,5481.000
5547.000,5556.000,5615.000
5596.000,5607.000,5547.000
5540.000,5545.000,5545.000
5676.000,5563.000,5593.000
5598.000,5577.000,5539.000
5612.000,5580.000,5579.000
5639.000,5631.000,5617.000
5643.000,5691.000,5601.000
5608.000,5587.000,5627.000
5664.000,5665.000,5713.000
5654.000,5754.000,5724.000
5696.000,5755.000,5656.000
5709.000,5676.000,5717.000
5687.000,5732.000,5710.000
5771.000,5704.000,5767.000
5725.000,5762.000,5741.000
5799.000,5700.000,5689.000
5752.000,5848.000,5717.000
5747.000,5697.000,5737.000
5758.000,5765.000,5686.000
5751.000,5777.000,5721.000
5759.000,5804.000,5725.000
5777.000,5800.000,5708.000
5817.000,5792.000,5761.000
5775.000,5820.000,5814.000
5869.000,5860.000,5851.000
5825.000,5827.000,5823.000
5871.000,5819.000,5857.000
5860.000,5887.000,5774.000
5858.000,5830.000,5857.000
5900.000,5825.000,5831.000
5878.000,5832.000,5939.000
5911.000,5810.000,5886.000
5908.000,5904.000,5820.000
5879.000,5893.000,5873.000
5888.000,5930.000,5902.000
5926.000,5928.000,5890.000
5950.000,5932.000,5978.000
5986.000,5968.000,6011.000
5955.000,5982.000,5934.000
5946.000,5930.000,5964.000
5988.000,6035.000,5971.000
5954.000,5974.000,5931.000
6018.000,6057.000,6055.000
6053.000,6037.000,6051.000
6060.000,6143.000,6087.000
6033.000,6057.000,6028.000
6003.000,6076.000,6035.000
6046.000,6016.000,6079.000
6040.000,6057.000,6011.000
6097.000,6051.000,6000.000
6018.000,6073.000,5990.000
6089.000,6047.000,6057.000
6059.000,6126.000,6008.000
6085.000,6080.000,6071.000
6114.000,6091.000,6099.000
6074.000,6196.000,6045.000
6136.000,6114.000,6106.000
6075.000,6099.000,6094.000
6099.000,6190.000,6101.000
6172.000,6148.000,6108.000
6170.000,6101.000,6171.000
6200.000,6190.000,6178.000
6161.000,6226.000,6231.000
6197.000,6264.000,6195.000
6189.000,6217.000,6215.000
6244.000,6268.000,6234.000
6216.000,6294.000,6170.000
6404.000,6334.000,6293.000
6341.000,6239.000,6300.000
6337.000,6318.000,6373.000
6348.000,6371.000,6391.000
6350.000,6435.000,6321.000
6520.000,6472.000,6454.000
6445.000,6487.000,6502.000
6552.000,6572.000,6477.000
6581.000,6687.000,6591.000
6635.000,6640.000,6627.000
6728.000,6744.000,6767.000
6826.000,6887.000,6884.000
6927.000,6888.000,6948.000
6988.000,6986.000,7001.000
7107.000,7125.000,7044.000
7090.000,7129.000,7144.000
7208.000,7221.000,7136.000
7230.000,7215.000,7301.000
7296.000,7297.000,7268.000
7242.000,7392.000,7275.000
7284.000,7267.000,7297.000
7277.000,7269.000,7248.000
7280.000,7225.000,7131.000
7194.000,7209.000,7110.000
7137.000,7155.000,7120.000
7072.000,7052.000,7099.000
7016.000,7040.000,6994.000
6870.000,6846.000,6903.000
6936.000,6877.000,6892.000
6831.000,6741.000,6744.000
6751.000,6701.000,6766.000
6669.000,6754.000,6668.000
6695.000,6672.000,6606.000
6586.000,6608.000,6634.000
6578.000,6622.000,6553.000
6513.000,6559.000,6567.000
6493.000,6479.000,6506.000
6532.000,6457.000,6431.000
6403.000,6388.000,6430.000
6417.000,6413.000,6400.000
6327.000,6426.000,6343.000
6455.000,6334.000,6371.000
6266.000,6380.000,6275.000
6313.000,6348.000,6291.000
6291.000,6298.000,6273.000
6249.000,6317.000,6258.000
6319.000,6289.000,6255.000
6265.000,6304.000,6248.000
6250.000,6219.000,6267.000
6248.000,6245.000,6275.000
6263.000,6176.000,6185.000
6252.000,6290.000,6216.000
6203.000,6206.000,6225.000
6241.000,6212.000,6256.000
6281.000,6179.000,6171.000
6200.000,6248.000,6291.000
6248.000,6268.000,6228.000
6292.000,6268.000,6267.000
6340.000,6233.000,6291.000
6254.000,6312.000,6360.000
6245.000,6245.000,6237.000
6247.000,6220.000,6239.000
6264.000,6173.000,6308.000
6195.000,6291.000,6307.000
6335.000,6241.000,6265.000
6291.000,6285.000,6253.000
6205.000,6226.000,6208.000
6158.000,6213.000,6295.000
6254.000,6262.000,6242.000
6211.000,6200.000,6209.000
6139.000,6184.000,6159.000
6159.000,6173.000,6151.000
6051.000,6114.000,6197.000
6143.000,6085.000,6161.000
6080.000,6117.000,6034.000
6163.000,6081.000,6094.000
6132.000,6038.000,6060.000
6059.000,6000.000,6073.000
6018.000,6035.000,5985.000
6001.000,5978.000,5944.000
5978.000,5962.000,5972.000
5968.000,5955.000,5912.000
6027.000,5939.000,5944.000
5960.000,5916.000,5940.000
5921.000,5968.000,5873.000
5921.000,5884.000,5912.000
5863.000,5869.000,5816.000
5885.000,5938.000,5856.000
5810.000,5909.000,5844.000
5837.000,5789.000,5769.000
5812.000,5859.000,5838.000
5782.000,5843.000,5831.000
5864.000,5913.000,5866.000
5827.000,5885.000,5788.000
5882.000,5824.000,5797.000
5822.000,5837.000,5738.000
5778.000,5779.000,5807.000
5830.000,5801.000,5745.000
5810.000,5770.000,5842.000
5851.000,5753.000,5832.000
5773.000,5768.000,5747.000
5712.000,5726.000,5761.000
5771.000,5739.000,5772.000
5742.000,5777.000,5760.000
5679.000,5715.000,5765.000
5698.000,5735.000,5759.000
5746.000,5813.000,5763.000
5789.000,5733.000,5773.000
5729.000,5801.000,5742.000
5807.000,5720.000,5794.000
5701.000,5723.000,5763.000
5694.000,5758.000,5706.000
5802.000,5761.000,5733.000
5782.000,5765.000,5752.000
5759.000,5781.000,5765.000
5775.000,5767.000,5781.000
5783.000,5799.000,5782.000
5823.000,5789.000,5744.000
5749.000,5740.000,5751.000
5799.000,5751.000,5807.000
5808.000,5847.000,5771.000
5830.000,5813.000,5777.000
5759.000,5772.000,5781.000
5847.000,5808.000,5789.000
5814.000,5879.000,5804.000
5799.000,5843.000,5749.000
5846.000,5830.000,5741.000
5756.000,5784.000,5730.000
5767.000,5828.000,5755.000
5797.000,5817.000,5756.000
5783.000,5764.000,5829.000
5850.000,5841.000,5840.000
5820.000,5829.000,5814.000
5867.000,5846.000,5830.000
5796.000,5809.000,5830.000
5880.000,5842.000,5824.000
5790.000,5747.000,5827.000
5802.000,5794.000,5801.000
5805.000,5833.000,5739.000
5812.000,5821.000,5767.000
5812.000,5874.000,5810.000
5851.000,5763.000,5764.000
5792.000,5713.000,5755.000
5771.000,5807.000,5738.000
5822.000,5801.000,5793.000
5792.000,5813.000,5895.000
5743.000,5826.000,5801.000
5796.000,5886.000,5773.000
5867.000,5877.000,5846.000
5815.000,5882.000,5860.000
5921.000,5885.000,5835.000
5902.000,5855.000,5895.000
5892.000,5942.000,5826.000
5884.000,5871.000,5902.000
5898.000,5904.000,5796.000
5796.000,5781.000,5882.000
5903.000,5879.000,5772.000
5797.000,5857.000,5842.000
5853.000,5807.000,5762.000
5804.000,5772.000,5780.000
5774.000,5812.000,5770.000
5752.000,5697.000,5729.000
5769.000,5749.000,5778.000
5802.000,5779.000,5844.000
5809.000,5772.000,5772.000
5775.000,5706.000,5699.000
5745.000,5774.000,5730.000
5694.000,5706.000,5777.000
5774.000,5761.000,5730.000
5702.000,5690.000,5716.000
5702.000,5656.000,5696.000
5764.000,5691.000,5745.000
5772.000,5734.000,5650.000
5668.000,5652.000,5637.000
5712.000,5700.000,5541.000
5649.000,5663.000,5652.000
5724.000,5701.000,5713.000
5683.000,5661.000,5678.000
5707.000,5680.000,5719.000
5752.000,5763.000,5667.000
5625.000,5654.000,5750.000
5715.000,5713.000,5734.000
5676.000,5737.000,5700.000
5751.000,5718.000,5636.000
5724.000,5640.000,5601.000
5665.000,5706.000,5705.000
5682.000,5824.000,5689.000
5673.000,5728.000,5696.000
5735.000,5651.000,5667.000
5670.000,5714.000,5687.000
5715.000,5703.000,5688.000
5698.000,5704.000,5607.000
5659.000,5721.000,5677.000
5679.000,5710.000,5730.000
5685.000,5626.000,5684.000
5657.000,5620.000,5666.000
5623.000,5694.000,5719.000
5685.000,5666.000,5749.000
5656.000,5700.000,5657.000
5716.000,5681.000,5703.000
5675.000,5700.000,5720.000
5674.000,5638.000,5664.000
5679.000,5655.000,5664.000
5726.000,5686.000,5707.000
5680.000,5708.000,5668.000
5776.000,5740.000,5683.000
5641.000,5741.000,5737.000
5647.000,5731.000,5692.000
5701.000,5720.000,5651.000
5717.000,5687.000,5663.000
5709.000,5686.000,5723.000
5675.000,5761.000,5702.000
5671.000,5708.000,5703.000
5666.000,5693.000,5679.000
5701.000,5748.000,5630.000
5768.000,5674.000,5652.000
5787.000,5662.000,5713.000
5717.000,5708.000,5650.000
5746.000,5745.000,5654.000
5704.000,5683.000,5700.000
5695.000,5687.000,5646.000
5766.000,5716.000,5719.000
5683.000,5733.000,5670.000
5671.000,5680.000,5668.000
5683.000,5657.000,5649.000
5713.000,5707.000,5749.000
5700.000,5735.000,5716.000
5696.000,5706.000,5717.000
5743.000,5698.000,5674.000
5695.000,5680.000,5718.000
5696.000,5737.000,5708.000
5680.000,5679.000,5693.000
5692.000,5743.000,5676.000
5631.000,5687.000,5641.000
5657.000,5683.000,5674.000
5721.000,5671.000,5615.000
5682.000,5721.000,5676.000
5771.000,5708.000,5765.000
5747.000,5720.000,5777.000
5772.000,5709.000,5646.000
5726.000,5736.000,5659.000
5718.000,5711.000,5645.000
5729.000,5682.000,5749.000
5706.000,5689.000,5699.000
5701.000,5730.000,5679.000
5708.000,5724.000,5686.000
5810.000,5831.000,5723.000
5712.000,5757.000,5670.000
5731.000,5696.000,5667.000
5747.000,5699.000,5803.000
5696.000,5681.000,5659.000
5726.000,5754.000,5692.000
5697.000,5773.000,5678.000
5721.000,5697.000,5722.000
5711.000,5674.000,5715.000
5719.000,5738.000,5711.000
5761.000,5652.000,5741.000
5704.000,5718.000,5647.000
5607.000,5717.000,5671.000
5730.000,5679.000,5718.000
5774.000,5650.000,5727.000
5667.000,5712.000,5694.000
