Focus Mode,Read Mode,Exposure Time (sec),Number of Frames,Start Y,End Y,Date,Time,Position (microns)
Single Acquisition,Spectrum,20.000000,3,105,125,12/11/2020,4:24:17 PM,0.000000,0.000000,40.010000,

1259.000,1268.000,1265.000
1261.000,1255.000,1262.000
1263.000,1263.000,1265.000
1265.000,1262.000,1266.000
1263.000,1263.000,1266.000
1268.000,1260.000,1261.000
1267.000,1260.000,1267.000
1264.000,1265.000,1262.000
1255.000,1259.000,1267.000
1269.000,1267.000,1267.000
1267.000,1251.000,1273.000
1267.000,1263.000,1268.000
1261.000,1270.000,1274.000
1270.000,1265.000,1275.000
1271.000,1267.000,1264.000
1274.000,1265.000,1268.000
1267.000,1263.000,1278.000
1275.000,1264.000,1280.000
1273.000,1272.000,1278.000
1282.000,1272.000,1268.000
1281.000,1267.000,1279.000
1282.000,1286.000,1294.000
1283.000,1279.000,1279.000
1278.000,1272.000,1287.000
1288.000,1285.000,1293.000
1288.000,1279.000,1296.000
1288.000,1287.000,1298.000
1290.000,1284.000,1293.000
1294.000,1295.000,1297.000
1299.000,1299.000,1300.000
1302.000,1299.000,1299.000
1295.000,1302.000,1318.000
1297.000,1303.000,1292.000
1309.000,1294.000,1308.000
1303.000,1298.000,1315.000
1312.000,1303.000,1323.000
1315.000,1300.000,1323.000
1310.000,1315.000,1317.000
1322.000,1325.000,1325.000
1318.000,1319.000,1338.000
1323.000,1327.000,1338.000
1323.000,1323.000,1333.000
1339.000,1327.000,1342.000
1333.000,1328.000,1339.000
1343.000,1343.000,1359.000
1354.000,1336.000,1356.000
1360.000,1347.000,1360.000
1354.000,1341.000,1365.000
1345.000,1352.000,1372.000
1367.000,1372.000,1372.000
1379.000,1357.000,1386.000
1384.000,1370.000,1389.000
1388.000,1378.000,1383.000
1396.000,1379.000,1390.000
1392.000,1396.000,1402.000
1409.000,1384.000,1399.000
1417.000,1393.000,1408.000
1410.000,1407.000,1409.000
1422.000,1415.000,1410.000
1405.000,1409.000,1422.000
1425.000,1412.000,1427.000
1422.000,1421.000,1406.000
1418.000,1429.000,1426.000
1429.000,1434.000,1431.000
1436.000,1443.000,1424.000
1455.000,1451.000,1451.000
1462.000,1461.000,1460.000
1488.000,1476.000,1495.000
1492.000,1467.000,1497.000
1494.000,1502.000,1514.000
1518.000,1481.000,1526.000
1515.000,1505.000,1541.000
1531.000,1519.000,1541.000
1531.000,1528.000,1582.000
1546.000,1563.000,1589.000
1584.000,1568.000,1603.000
1610.000,1564.000,1591.000
1609.000,1591.000,1621.000
1632.000,1607.000,1609.000
1632.000,1617.000,1662.000
1645.000,1647.000,1647.000
1673.000,1653.000,1668.000
1677.000,1651.000,1679.000
1689.000,1685.000,1676.000
1683.000,1700.000,1714.000
1709.000,1708.000,1729.000
1697.000,1744.000,1739.000
1740.000,1739.000,1744.000
1763.000,1758.000,1745.000
1764.000,1763.000,1748.000
1806.000,1751.000,1787.000
1791.000,1796.000,1817.000
1824.000,1826.000,1830.000
1872.000,1860.000,1884.000
1870.000,1866.000,1867.000
1920.000,1924.000,1938.000
1996.000,1988.000,2024.000
2039.000,2043.000,2084.000
2167.000,2135.000,2130.000
2247.000,2196.000,2210.000
2326.000,2294.000,2315.000
2413.000,2379.000,2420.000
2558.000,2492.000,2540.000
2603.000,2539.000,2601.000
2732.000,2633.000,2672.000
2695.000,2690.000,2751.000
2763.000,2717.000,2762.000
2808.000,2711.000,2757.000
2856.000,2829.000,2791.000
2879.000,2757.000,2766.000
2822.000,2745.000,2833.000
2832.000,2775.000,2907.000
2816.000,2780.000,2854.000
2848.000,2792.000,2792.000
2831.000,2803.000,2818.000
2888.000,2871.000,2956.000
3015.000,3035.000,3028.000
3137.000,3171.000,3146.000
3375.000,3331.000,3348.000
3713.000,3819.000,3720.000
4428.000,4518.000,4350.000
5838.000,6217.000,5857.000
10105.000,10966.000,9829.000
28214.000,27964.000,23140.000
61584.000,61589.000,61557.000
62147.000,62140.000,62141.000
62067.000,62066.000,62068.000
62013.000,62018.000,62018.000
62023.000,62021.000,62023.000
62011.000,62013.000,62017.000
61994.000,61995.000,61994.000
61996.000,61994.000,61992.000
61992.000,61993.000,61996.000
61985.000,61982.000,61992.000
61987.000,61983.000,61980.000
61983.000,61988.000,61985.000
61978.000,61987.000,61985.000
61984.000,61986.000,61980.000
61987.000,61981.000,61989.000
61979.000,61981.000,61986.000
61981.000,61979.000,61979.000
61977.000,61974.000,61975.000
61981.000,61981.000,61980.000
61979.000,61977.000,61978.000
61980.000,61977.000,61975.000
61983.000,61983.000,61980.000
61979.000,61972.000,61981.000
61975.000,61979.000,61981.000
61980.000,61976.000,61974.000
61979.000,61979.000,61976.000
61974.000,61978.000,61981.000
61979.000,61974.000,61976.000
61979.000,61977.000,61977.000
61978.000,61979.000,61976.000
61976.000,61977.000,61976.000
61979.000,61979.000,61977.000
61972.000,61973.000,61972.000
61977.000,61980.000,61977.000
61982.000,61974.000,61975.000
61976.000,61976.000,61984.000
61975.000,61977.000,61977.000
61977.000,61968.000,61983.000
61968.000,61980.000,61974.000
61978.000,61981.000,61974.000
61980.000,61973.000,61970.000
61976.000,61981.000,61976.000
61975.000,61976.000,61982.000
61980.000,61980.000,61980.000
61985.000,61977.000,61974.000
61975.000,61982.000,61976.000
61978.000,61979.000,61978.000
61981.000,61981.000,61977.000
61980.000,61985.000,61987.000
61985.000,61984.000,61981.000
61990.000,61999.000,61998.000
62023.000,62019.000,62021.000
62507.000,54220.000,65156.000
1672.000,1652.000,1650.000
1562.000,1573.000,1581.000
1557.000,1540.000,1534.000
1517.000,1534.000,1545.000
1507.000,1517.000,1523.000
1492.000,1510.000,1512.000
1489.000,1491.000,1492.000
1482.000,1464.000,1464.000
1470.000,1465.000,1469.000
1472.000,1457.000,1466.000
1444.000,1447.000,1456.000
1448.000,1474.000,1458.000
1447.000,1439.000,1451.000
1444.000,1436.000,1436.000
1428.000,1445.000,1420.000
1424.000,1431.000,1411.000
1414.000,1422.000,1428.000
1433.000,1410.000,1415.000
1404.000,1425.000,1413.000
1426.000,1417.000,1402.000
1411.000,1419.000,1404.000
1405.000,1408.000,1399.000
1409.000,1395.000,1413.000
1387.000,1401.000,1402.000
1389.000,1402.000,1384.000
1383.000,1396.000,1383.000
1379.000,1403.000,1389.000
1381.000,1382.000,1397.000
1378.000,1371.000,1377.000
1376.000,1368.000,1371.000
1368.000,1372.000,1366.000
1378.000,1378.000,1371.000
1367.000,1355.000,1377.000
1363.000,1370.000,1379.000
1362.000,1352.000,1382.000
1353.000,1359.000,1362.000
1365.000,1351.000,1358.000
1369.000,1357.000,1358.000
1351.000,1352.000,1359.000
1349.000,1351.000,1355.000
1337.000,1345.000,1339.000
1351.000,1348.000,1353.000
1351.000,1358.000,1347.000
1343.000,1350.000,1343.000
1343.000,1349.000,1340.000
1325.000,1348.000,1323.000
1344.000,1340.000,1335.000
1336.000,1332.000,1332.000
1334.000,1347.000,1339.000
1323.000,1339.000,1332.000
1329.000,1331.000,1339.000
1328.000,1337.000,1335.000
1328.000,1333.000,1331.000
1332.000,1329.000,1333.000
1331.000,1330.000,1332.000
1335.000,1318.000,1323.000
1318.000,1326.000,1313.000
1324.000,1325.000,1328.000
1327.000,1321.000,1320.000
1319.000,1321.000,1325.000
1322.000,1326.000,1325.000
1312.000,1319.000,1325.000
1316.000,1309.000,1313.000
1315.000,1324.000,1318.000
1315.000,1311.000,1310.000
1313.000,1309.000,1314.000
1311.000,1319.000,1312.000
1303.000,1309.000,1320.000
1313.000,1315.000,1314.000
1312.000,1307.000,1314.000
1303.000,1308.000,1299.000
1304.000,1314.000,1310.000
1304.000,1306.000,1305.000
1306.000,1303.000,1309.000
1303.000,1300.000,1303.000
1306.000,1312.000,1302.000
1310.000,1306.000,1301.000
1302.000,1305.000,1301.000
1297.000,1303.000,1297.000
1301.000,1291.000,1298.000
1303.000,1303.000,1307.000
1304.000,1299.000,1297.000
1305.000,1292.000,1294.000
1307.000,1304.000,1296.000
1300.000,1305.000,1299.000
1303.000,1294.000,1297.000
1299.000,1290.000,1299.000
1296.000,1292.000,1302.000
1301.000,1300.000,1296.000
1295.000,1307.000,1287.000
1298.000,1296.000,1301.000
1292.000,1291.000,1301.000
1302.000,1288.000,1289.000
1302.000,1305.000,1296.000
1302.000,1301.000,1286.000
1305.000,1292.000,1299.000
1290.000,1299.000,1299.000
1302.000,1298.000,1299.000
1302.000,1288.000,1295.000
1298.000,1290.000,1300.000
1302.000,1297.000,1312.000
1302.000,1301.000,1296.000
1300.000,1305.000,1303.000
1314.000,1309.000,1298.000
1309.000,1318.000,1304.000
1306.000,1315.000,1302.000
1312.000,1313.000,1314.000
1323.000,1316.000,1328.000
1324.000,1321.000,1334.000
1335.000,1336.000,1332.000
1340.000,1321.000,1342.000
1329.000,1350.000,1339.000
1349.000,1363.000,1345.000
1373.000,1358.000,1361.000
1355.000,1394.000,1369.000
1371.000,1401.000,1375.000
1410.000,1403.000,1401.000
1401.000,1430.000,1422.000
1436.000,1436.000,1428.000
1467.000,1479.000,1451.000
1481.000,1505.000,1494.000
1530.000,1531.000,1530.000
1556.000,1599.000,1576.000
1605.000,1640.000,1595.000
1662.000,1731.000,1636.000
1719.000,1763.000,1700.000
1800.000,1879.000,1813.000
1904.000,1949.000,1913.000
2025.000,2100.000,1984.000
2113.000,2259.000,2147.000
2254.000,2344.000,2237.000
2434.000,2600.000,2451.000
2675.000,2861.000,2629.000
2851.000,3176.000,2961.000
3243.000,3476.000,3255.000
3564.000,3862.000,3559.000
3916.000,4257.000,3970.000
4329.000,4781.000,4430.000
4819.000,5379.000,4892.000
5409.000,5942.000,5367.000
5915.000,6470.000,6031.000
6513.000,7173.000,6591.000
6994.000,8066.000,7180.000
7741.000,9085.000,7781.000
8388.000,10009.000,8514.000
8812.000,10551.000,9047.000
9450.000,10979.000,9605.000
9912.000,11199.000,10081.000
10399.000,11666.000,10511.000
10724.000,12110.000,10917.000
11073.000,12552.000,11214.000
11217.000,12613.000,11415.000
11357.000,12930.000,11486.000
11488.000,13068.000,11635.000
11584.000,13081.000,11636.000
11587.000,13082.000,11859.000
11611.000,13203.000,11872.000
11810.000,13285.000,11899.000
11788.000,13364.000,12017.000
11759.000,13417.000,11987.000
11722.000,13224.000,11904.000
11730.000,13277.000,11975.000
11718.000,13223.000,11804.000
11724.000,13273.000,11987.000
11815.000,13281.000,11878.000
11845.000,13383.000,12030.000
11803.000,13444.000,12002.000
11812.000,13210.000,12006.000
11877.000,13418.000,12055.000
11943.000,13438.000,12085.000
11931.000,13641.000,12002.000
11806.000,13481.000,12070.000
12069.000,13586.000,12144.000
11969.000,13554.000,11988.000
11922.000,13393.000,12018.000
11959.000,13309.000,11954.000
11910.000,13442.000,12188.000
11964.000,13540.000,12176.000
11981.000,13460.000,12008.000
11983.000,13450.000,12024.000
12025.000,13614.000,12178.000
11834.000,13556.000,12047.000
11881.000,13470.000,12108.000
11932.000,13468.000,12075.000
11968.000,13555.000,12087.000
12042.000,13617.000,12048.000
11997.000,13547.000,12172.000
11992.000,13652.000,12207.000
12031.000,13552.000,12150.000
11961.000,13632.000,12182.000
11944.000,13496.000,12083.000
11876.000,13452.000,12051.000
12060.000,13630.000,12140.000
12026.000,13612.000,12200.000
12149.000,13615.000,12296.000
11988.000,13706.000,12273.000
12108.000,13693.000,12286.000
12053.000,13586.000,12306.000
12121.000,13628.000,12168.000
12122.000,13745.000,12172.000
12139.000,13728.000,12392.000
12215.000,13823.000,12330.000
12299.000,13894.000,12414.000
12335.000,13830.000,12535.000
12242.000,14021.000,12603.000
12343.000,13988.000,12576.000
12361.000,14055.000,12602.000
12534.000,14123.000,12578.000
12443.000,14090.000,12505.000
12441.000,13999.000,12616.000
12478.000,14076.000,12581.000
12412.000,14153.000,12545.000
12373.000,14143.000,12612.000
12419.000,14141.000,12739.000
12532.000,14117.000,12678.000
12586.000,14218.000,12699.000
12567.000,14268.000,12675.000
12602.000,14327.000,12767.000
12630.000,14370.000,12846.000
12599.000,14213.000,12711.000
12603.000,14258.000,12790.000
12647.000,14261.000,12809.000
12690.000,14472.000,12816.000
12692.000,14402.000,12929.000
12617.000,14358.000,12839.000
12606.000,14308.000,12766.000
12646.000,14227.000,12826.000
12588.000,14270.000,12820.000
12481.000,14270.000,12690.000
12604.000,14240.000,12850.000
12481.000,14252.000,12856.000
12543.000,14357.000,12850.000
12718.000,14328.000,12744.000
12649.000,14391.000,12661.000
12645.000,14423.000,12761.000
12534.000,14322.000,12760.000
12637.000,14195.000,12846.000
12564.000,14160.000,12791.000
12684.000,14360.000,12694.000
12632.000,14370.000,12867.000
12564.000,14271.000,12683.000
12711.000,14271.000,12894.000
12556.000,14232.000,12700.000
12591.000,14429.000,12887.000
12633.000,14371.000,12798.000
12612.000,14356.000,12849.000
12753.000,14389.000,12945.000
12665.000,14543.000,12959.000
12707.000,14636.000,13004.000
12839.000,14498.000,12983.000
12735.000,14567.000,13010.000
12866.000,14555.000,12988.000
12841.000,14579.000,13018.000
12841.000,14542.000,13071.000
13035.000,14720.000,13073.000
12986.000,14807.000,13193.000
12936.000,14593.000,13098.000
12928.000,14695.000,13210.000
13003.000,14706.000,13145.000
12967.000,14855.000,13158.000
12935.000,14903.000,13201.000
13086.000,14719.000,13133.000
12980.000,14860.000,13271.000
13050.000,14857.000,13245.000
13034.000,14756.000,13077.000
12973.000,14603.000,13232.000
12982.000,14762.000,13151.000
13138.000,14837.000,13127.000
13004.000,14930.000,13170.000
13084.000,14999.000,13181.000
13174.000,14951.000,13397.000
13177.000,14811.000,13268.000
13192.000,14961.000,13317.000
13091.000,14933.000,13383.000
13127.000,15025.000,13275.000
12955.000,14939.000,13313.000
13172.000,14920.000,13226.000
13099.000,14861.000,13305.000
13087.000,14900.000,13261.000
13173.000,14966.000,13316.000
13027.000,14986.000,13322.000
13094.000,15025.000,13253.000
13187.000,14960.000,13363.000
13056.000,14927.000,13274.000
13083.000,14980.000,13307.000
13225.000,15015.000,13386.000
13128.000,14862.000,13383.000
13107.000,15124.000,13330.000
13049.000,14939.000,13348.000
13186.000,14953.000,13391.000
13128.000,14969.000,13293.000
13229.000,14979.000,13322.000
13094.000,15062.000,13343.000
13251.000,15002.000,13309.000
13197.000,14970.000,13361.000
13195.000,15010.000,13495.000
13181.000,15039.000,13399.000
13226.000,15006.000,13345.000
13259.000,15121.000,13506.000
13202.000,15043.000,13439.000
13272.000,15125.000,13470.000
13318.000,15140.000,13612.000
13459.000,15136.000,13581.000
13347.000,15135.000,13680.000
13218.000,15188.000,13378.000
13460.000,15074.000,13480.000
13393.000,15169.000,13539.000
13292.000,15158.000,13624.000
13377.000,15339.000,13702.000
13455.000,15253.000,13669.000
13282.000,15091.000,13599.000
13413.000,15374.000,13612.000
13502.000,15303.000,13761.000
13458.000,15343.000,13698.000
13344.000,15314.000,13651.000
13403.000,15344.000,13600.000
13499.000,15382.000,13734.000
13496.000,15421.000,13667.000
13554.000,15237.000,13631.000
13529.000,15524.000,13789.000
13603.000,15415.000,13737.000
13474.000,15447.000,13821.000
13530.000,15462.000,13685.000
13521.000,15543.000,13732.000
13433.000,15446.000,13894.000
13568.000,15519.000,13593.000
13600.000,15491.000,13835.000
13731.000,15523.000,13851.000
13701.000,15379.000,13790.000
13800.000,15547.000,13887.000
13729.000,15411.000,13824.000
13642.000,15648.000,13925.000
13755.000,15610.000,13979.000
13628.000,15578.000,13900.000
13605.000,15505.000,13923.000
13645.000,15538.000,13803.000
13651.000,15623.000,13917.000
13613.000,15612.000,13751.000
13653.000,15496.000,13799.000
13500.000,15531.000,13911.000
13518.000,15514.000,13785.000
13511.000,15456.000,13970.000
13672.000,15336.000,13666.000
13591.000,15453.000,13686.000
13562.000,15556.000,13738.000
13549.000,15414.000,13740.000
13635.000,15257.000,13775.000
13445.000,15312.000,13817.000
13534.000,15432.000,13682.000
13643.000,15456.000,13737.000
13660.000,15548.000,13873.000
13675.000,15580.000,13685.000
13607.000,15618.000,13824.000
13589.000,15506.000,13790.000
13532.000,15298.000,13848.000
13563.000,15610.000,13846.000
13581.000,15496.000,13826.000
13527.000,15481.000,13754.000
13661.000,15556.000,13710.000
13685.000,15531.000,13730.000
13687.000,15714.000,13883.000
13647.000,15593.000,13843.000
13711.000,15640.000,13805.000
13582.000,15502.000,13821.000
13642.000,15651.000,13821.000
13695.000,15558.000,14042.000
13748.000,15712.000,13907.000
13785.000,15642.000,13987.000
13667.000,15669.000,13882.000
13823.000,15608.000,13872.000
13799.000,15722.000,13932.000
13751.000,15683.000,13889.000
13718.000,15723.000,14038.000
13722.000,15655.000,13990.000
13744.000,15799.000,14116.000
13792.000,15688.000,14127.000
13815.000,15763.000,13934.000
13772.000,15800.000,14021.000
13725.000,15736.000,13886.000
13842.000,15760.000,14039.000
13875.000,15908.000,14048.000
13801.000,15735.000,14048.000
13827.000,15866.000,14046.000
13903.000,15961.000,14243.000
13979.000,15862.000,14105.000
14095.000,15883.000,14204.000
14035.000,15855.000,14156.000
14015.000,15985.000,14266.000
13999.000,15917.000,14211.000
14080.000,15960.000,14089.000
14040.000,15929.000,14222.000
14049.000,16061.000,14406.000
14210.000,16012.000,14323.000
14002.000,15903.000,14240.000
14062.000,16118.000,14319.000
14028.000,16044.000,14267.000
13992.000,16051.000,14284.000
14102.000,16181.000,14177.000
14202.000,16006.000,14307.000
14053.000,16066.000,14235.000
14085.000,16036.000,14210.000
13968.000,16057.000,14339.000
13933.000,15893.000,14171.000
13820.000,15946.000,14118.000
13883.000,15863.000,14184.000
13915.000,15940.000,14137.000
13980.000,15971.000,14122.000
14058.000,15992.000,14179.000
13957.000,16088.000,14250.000
13971.000,15998.000,14246.000
13949.000,15907.000,14202.000
14083.000,15902.000,14311.000
14050.000,16077.000,14367.000
14141.000,15984.000,14338.000
14131.000,16076.000,14288.000
13984.000,15889.000,14247.000
14011.000,16012.000,14174.000
14100.000,16046.000,14208.000
14147.000,16092.000,14392.000
13953.000,15989.000,14266.000
13901.000,15832.000,14205.000
13797.000,15598.000,14152.000
13841.000,15783.000,14117.000
13878.000,15854.000,13988.000
13862.000,15839.000,14155.000
13964.000,15675.000,14202.000
13820.000,15965.000,14143.000
13855.000,15872.000,14242.000
13960.000,15773.000,14098.000
13885.000,15874.000,14146.000
13809.000,15798.000,14062.000
13958.000,15896.000,14092.000
13848.000,15870.000,14119.000
13938.000,15755.000,14135.000
13880.000,15921.000,14053.000
13866.000,15705.000,14088.000
13909.000,15879.000,14015.000
13805.000,15744.000,14087.000
13742.000,15804.000,14051.000
13796.000,15764.000,14059.000
13880.000,15677.000,14019.000
13752.000,15609.000,14109.000
13900.000,15835.000,14091.000
13908.000,15888.000,14230.000
13951.000,15946.000,14052.000
13813.000,15862.000,14146.000
13911.000,15817.000,14148.000
14023.000,16039.000,14142.000
13886.000,15851.000,14159.000
14030.000,16028.000,14163.000
14070.000,16001.000,14192.000
13998.000,15870.000,14112.000
13842.000,15896.000,14084.000
13975.000,15867.000,14186.000
13943.000,15915.000,14099.000
13868.000,15821.000,14044.000
13910.000,15932.000,14095.000
13881.000,15840.000,14192.000
13995.000,15967.000,14247.000
14057.000,15994.000,14163.000
13978.000,16059.000,14205.000
13916.000,15944.000,14138.000
13863.000,15883.000,14404.000
13901.000,15983.000,14200.000
14163.000,16167.000,14325.000
13998.000,16153.000,14383.000
14131.000,16071.000,14288.000
13981.000,16073.000,14355.000
14092.000,16040.000,14279.000
13981.000,16177.000,14318.000
13980.000,16116.000,14315.000
14040.000,16063.000,14319.000
14068.000,16048.000,14405.000
14130.000,16277.000,14369.000
14223.000,16182.000,14500.000
14076.000,16110.000,14434.000
14163.000,15977.000,14283.000
13963.000,16010.000,14404.000
14077.000,15994.000,14210.000
14040.000,15909.000,14331.000
14029.000,16223.000,14464.000
14177.000,16189.000,14354.000
14090.000,16294.000,14428.000
14167.000,16056.000,14294.000
14117.000,16127.000,14327.000
14001.000,15925.000,14441.000
14100.000,16119.000,14541.000
