Focus Mode,Read Mode,Exposure Time (sec),Number of Frames,Start Y,End Y,Date,Time,Position (microns)
Single Acquisition,Spectrum,20.000000,3,105,125,12/11/2020,4:22:20 PM,0.000000,0.000000,40.010000,

1255.000,1260.000,1257.000
1260.000,1257.000,1248.000
1253.000,1261.000,1253.000
1260.000,1249.000,1262.000
1264.000,1258.000,1253.000
1261.000,1258.000,1266.000
1265.000,1259.000,1269.000
1267.000,1253.000,1267.000
1261.000,1259.000,1274.000
1265.000,1258.000,1268.000
1260.000,1258.000,1262.000
1263.000,1263.000,1261.000
1265.000,1255.000,1262.000
1270.000,1263.000,1271.000
1268.000,1280.000,1265.000
1268.000,1258.000,1261.000
1279.000,1268.000,1270.000
1272.000,1263.000,1269.000
1271.000,1267.000,1272.000
1276.000,1274.000,1271.000
1271.000,1273.000,1274.000
1279.000,1277.000,1267.000
1283.000,1281.000,1278.000
1278.000,1276.000,1284.000
1284.000,1286.000,1279.000
1289.000,1286.000,1287.000
1287.000,1285.000,1287.000
1286.000,1284.000,1294.000
1288.000,1288.000,1297.000
1288.000,1284.000,1288.000
1298.000,1288.000,1291.000
1294.000,1295.000,1295.000
1303.000,1298.000,1298.000
1313.000,1299.000,1305.000
1299.000,1299.000,1298.000
1316.000,1308.000,1315.000
1301.000,1300.000,1317.000
1320.000,1311.000,1312.000
1323.000,1315.000,1313.000
1318.000,1317.000,1314.000
1321.000,1326.000,1310.000
1331.000,1316.000,1319.000
1338.000,1325.000,1334.000
1339.000,1332.000,1333.000
1343.000,1333.000,1325.000
1344.000,1335.000,1338.000
1337.000,1346.000,1344.000
1343.000,1348.000,1347.000
1354.000,1345.000,1340.000
1355.000,1343.000,1360.000
1372.000,1359.000,1367.000
1385.000,1372.000,1358.000
1376.000,1373.000,1370.000
1389.000,1385.000,1380.000
1380.000,1389.000,1380.000
1383.000,1380.000,1391.000
1408.000,1391.000,1395.000
1401.000,1402.000,1399.000
1405.000,1398.000,1404.000
1425.000,1412.000,1401.000
1396.000,1431.000,1412.000
1427.000,1426.000,1428.000
1429.000,1432.000,1426.000
1441.000,1423.000,1421.000
1458.000,1449.000,1435.000
1440.000,1440.000,1446.000
1457.000,1454.000,1453.000
1462.000,1479.000,1488.000
1479.000,1470.000,1484.000
1487.000,1491.000,1486.000
1524.000,1483.000,1495.000
1520.000,1511.000,1513.000
1525.000,1534.000,1516.000
1542.000,1551.000,1539.000
1568.000,1565.000,1558.000
1575.000,1579.000,1572.000
1582.000,1601.000,1600.000
1619.000,1595.000,1593.000
1595.000,1625.000,1609.000
1624.000,1647.000,1632.000
1673.000,1668.000,1634.000
1682.000,1652.000,1674.000
1687.000,1666.000,1660.000
1686.000,1696.000,1682.000
1707.000,1688.000,1684.000
1722.000,1703.000,1716.000
1761.000,1737.000,1755.000
1754.000,1748.000,1721.000
1813.000,1788.000,1759.000
1823.000,1775.000,1812.000
1844.000,1821.000,1790.000
1852.000,1825.000,1853.000
1905.000,1864.000,1879.000
1908.000,1903.000,1913.000
1958.000,1931.000,1920.000
2019.000,1999.000,1972.000
2061.000,2058.000,2050.000
2147.000,2150.000,2121.000
2232.000,2217.000,2195.000
2356.000,2307.000,2344.000
2456.000,2436.000,2433.000
2594.000,2562.000,2547.000
2732.000,2719.000,2694.000
2833.000,2857.000,2796.000
3022.000,2976.000,2995.000
3102.000,3016.000,2987.000
3170.000,3111.000,3105.000
3162.000,3112.000,3069.000
3206.000,3159.000,3155.000
3218.000,3195.000,3127.000
3195.000,3128.000,3136.000
3159.000,3134.000,3118.000
3155.000,3092.000,3114.000
3099.000,3049.000,3052.000
3123.000,3093.000,3018.000
3130.000,3099.000,3143.000
3207.000,3167.000,3196.000
3339.000,3283.000,3265.000
3536.000,3486.000,3440.000
3792.000,3756.000,3732.000
4321.000,4207.000,4223.000
5262.000,5060.000,5104.000
7415.000,6967.000,7118.000
13767.000,12100.000,12428.000
62382.000,63837.000,35950.000
61526.000,61725.000,61600.000
62056.000,62118.000,62132.000
61995.000,62025.000,62050.000
62021.000,62042.000,62021.000
62011.000,62026.000,62015.000
61984.000,61988.000,62006.000
61989.000,61994.000,61992.000
61989.000,61997.000,61988.000
61978.000,61983.000,61988.000
61978.000,61978.000,61981.000
61974.000,61979.000,61984.000
61976.000,61987.000,61983.000
61976.000,61975.000,61977.000
61972.000,61981.000,61987.000
61974.000,61979.000,61985.000
61976.000,61973.000,61981.000
61973.000,61984.000,61980.000
61974.000,61978.000,61978.000
61973.000,61979.000,61974.000
61973.000,61972.000,61973.000
61971.000,61971.000,61976.000
61976.000,61969.000,61975.000
61971.000,61976.000,61972.000
61970.000,61975.000,61977.000
61969.000,61972.000,61974.000
61967.000,61973.000,61975.000
61971.000,61977.000,61973.000
61971.000,61972.000,61973.000
61967.000,61974.000,61974.000
61972.000,61971.000,61972.000
61967.000,61970.000,61978.000
61968.000,61973.000,61975.000
61968.000,61974.000,61972.000
61973.000,61968.000,61972.000
61967.000,61972.000,61976.000
61973.000,61974.000,61976.000
61969.000,61970.000,61974.000
61974.000,61970.000,61976.000
61969.000,61973.000,61975.000
61974.000,61972.000,61975.000
61970.000,61971.000,61974.000
61970.000,61969.000,61973.000
61965.000,61977.000,61975.000
61969.000,61973.000,61977.000
61969.000,61977.000,61974.000
61970.000,61972.000,61976.000
61969.000,61972.000,61978.000
61976.000,61973.000,61975.000
61974.000,61977.000,61981.000
61976.000,61976.000,61990.000
61978.000,61979.000,62019.000
61992.000,62010.000,65535.000
62019.000,62049.000,1655.000
59063.000,1859.000,1554.000
1647.000,1565.000,1558.000
1577.000,1555.000,1507.000
1518.000,1530.000,1501.000
1534.000,1511.000,1500.000
1499.000,1509.000,1484.000
1502.000,1501.000,1495.000
1483.000,1477.000,1477.000
1477.000,1489.000,1478.000
1478.000,1459.000,1447.000
1466.000,1457.000,1464.000
1459.000,1458.000,1453.000
1437.000,1442.000,1455.000
1445.000,1435.000,1424.000
1443.000,1437.000,1425.000
1432.000,1420.000,1420.000
1448.000,1431.000,1411.000
1422.000,1423.000,1421.000
1431.000,1418.000,1406.000
1407.000,1413.000,1409.000
1406.000,1406.000,1407.000
1396.000,1398.000,1383.000
1410.000,1394.000,1396.000
1405.000,1396.000,1393.000
1387.000,1415.000,1397.000
1405.000,1387.000,1392.000
1400.000,1390.000,1394.000
1383.000,1384.000,1385.000
1388.000,1392.000,1393.000
1384.000,1375.000,1373.000
1368.000,1385.000,1382.000
1372.000,1372.000,1371.000
1372.000,1364.000,1360.000
1363.000,1359.000,1358.000
1374.000,1367.000,1375.000
1365.000,1357.000,1368.000
1363.000,1356.000,1349.000
1368.000,1367.000,1362.000
1362.000,1352.000,1360.000
1358.000,1348.000,1351.000
1361.000,1345.000,1342.000
1344.000,1345.000,1337.000
1347.000,1346.000,1346.000
1341.000,1331.000,1337.000
1339.000,1339.000,1330.000
1342.000,1338.000,1345.000
1339.000,1327.000,1336.000
1338.000,1341.000,1344.000
1336.000,1337.000,1325.000
1344.000,1324.000,1343.000
1332.000,1337.000,1330.000
1331.000,1323.000,1327.000
1328.000,1331.000,1327.000
1330.000,1332.000,1327.000
1325.000,1329.000,1328.000
1334.000,1320.000,1314.000
1328.000,1323.000,1310.000
1321.000,1335.000,1324.000
1315.000,1329.000,1317.000
1321.000,1325.000,1320.000
1333.000,1319.000,1318.000
1310.000,1321.000,1321.000
1311.000,1325.000,1316.000
1319.000,1314.000,1310.000
1327.000,1321.000,1309.000
1326.000,1314.000,1332.000
1311.000,1301.000,1299.000
1307.000,1323.000,1310.000
1316.000,1312.000,1305.000
1317.000,1308.000,1309.000
1307.000,1306.000,1302.000
1306.000,1312.000,1309.000
1317.000,1307.000,1297.000
1312.000,1310.000,1310.000
1303.000,1301.000,1304.000
1309.000,1306.000,1301.000
1307.000,1312.000,1304.000
1294.000,1307.000,1293.000
1302.000,1311.000,1305.000
1295.000,1303.000,1307.000
1315.000,1296.000,1301.000
1294.000,1307.000,1301.000
1299.000,1309.000,1293.000
1307.000,1302.000,1299.000
1306.000,1290.000,1297.000
1291.000,1303.000,1290.000
1297.000,1298.000,1302.000
1299.000,1291.000,1299.000
1304.000,1286.000,1292.000
1294.000,1305.000,1287.000
1303.000,1301.000,1299.000
1308.000,1296.000,1295.000
1293.000,1300.000,1308.000
1301.000,1304.000,1294.000
1305.000,1299.000,1296.000
1291.000,1296.000,1308.000
1302.000,1292.000,1293.000
1296.000,1294.000,1296.000
1312.000,1299.000,1309.000
1300.000,1301.000,1291.000
1312.000,1296.000,1293.000
1310.000,1302.000,1300.000
1303.000,1299.000,1308.000
1310.000,1303.000,1298.000
1309.000,1308.000,1306.000
1317.000,1311.000,1314.000
1313.000,1319.000,1316.000
1339.000,1324.000,1320.000
1327.000,1325.000,1331.000
1340.000,1327.000,1316.000
1352.000,1344.000,1332.000
1348.000,1352.000,1352.000
1368.000,1351.000,1351.000
1405.000,1383.000,1363.000
1390.000,1382.000,1369.000
1418.000,1391.000,1387.000
1429.000,1406.000,1409.000
1462.000,1434.000,1424.000
1494.000,1453.000,1452.000
1512.000,1488.000,1478.000
1577.000,1512.000,1486.000
1581.000,1561.000,1532.000
1668.000,1618.000,1585.000
1745.000,1664.000,1607.000
1803.000,1730.000,1675.000
1863.000,1794.000,1768.000
1989.000,1918.000,1847.000
2145.000,2016.000,1934.000
2290.000,2153.000,2033.000
2479.000,2275.000,2194.000
2654.000,2445.000,2374.000
2911.000,2697.000,2551.000
3171.000,2924.000,2776.000
3532.000,3265.000,3029.000
3976.000,3540.000,3400.000
4365.000,3969.000,3707.000
4949.000,4423.000,4149.000
5530.000,4879.000,4597.000
6055.000,5489.000,5034.000
6730.000,5961.000,5510.000
7448.000,6626.000,6188.000
8156.000,7160.000,6674.000
8998.000,7941.000,7250.000
9634.000,8494.000,7811.000
10254.000,9132.000,8290.000
11014.000,9597.000,8785.000
11664.000,10248.000,9276.000
11956.000,10547.000,9816.000
12532.000,11041.000,9957.000
12942.000,11312.000,10275.000
13113.000,11480.000,10330.000
13341.000,11604.000,10586.000
13454.000,11747.000,10607.000
13564.000,11825.000,10784.000
13616.000,11940.000,10772.000
13765.000,12032.000,10831.000
13905.000,12134.000,10892.000
13860.000,12087.000,11005.000
13939.000,12035.000,11053.000
13746.000,11969.000,10900.000
13876.000,12136.000,10984.000
13786.000,11967.000,10862.000
13797.000,11987.000,10881.000
13824.000,12156.000,10937.000
13764.000,12163.000,10984.000
13932.000,12154.000,10991.000
14031.000,12038.000,10989.000
13903.000,12120.000,11058.000
13971.000,12082.000,11005.000
14056.000,12265.000,11029.000
13992.000,12230.000,11098.000
14058.000,12183.000,11076.000
13988.000,12274.000,11089.000
14041.000,12112.000,11003.000
13925.000,12102.000,10996.000
14055.000,12205.000,10990.000
14100.000,12240.000,11120.000
14083.000,12126.000,11102.000
14059.000,12224.000,11019.000
14014.000,12198.000,11059.000
14051.000,12246.000,11063.000
14016.000,12105.000,11060.000
14082.000,12263.000,11071.000
14163.000,12127.000,11045.000
14263.000,12386.000,11152.000
14130.000,12329.000,11055.000
14247.000,12404.000,11214.000
14074.000,12401.000,11017.000
14134.000,12194.000,11094.000
14109.000,12322.000,11196.000
14192.000,12166.000,11132.000
14203.000,12228.000,11031.000
14248.000,12208.000,11253.000
14240.000,12348.000,11248.000
14183.000,12285.000,11215.000
14269.000,12382.000,11094.000
14143.000,12283.000,11167.000
14211.000,12387.000,11180.000
14300.000,12416.000,11238.000
14338.000,12411.000,11342.000
14512.000,12519.000,11313.000
14513.000,12631.000,11495.000
14619.000,12661.000,11368.000
14511.000,12802.000,11462.000
14600.000,12592.000,11535.000
14569.000,12682.000,11540.000
14563.000,12769.000,11573.000
14650.000,12615.000,11584.000
14669.000,12674.000,11517.000
14738.000,12619.000,11419.000
14565.000,12649.000,11633.000
14635.000,12795.000,11513.000
14812.000,12819.000,11625.000
14847.000,12783.000,11653.000
14849.000,12943.000,11781.000
14912.000,12813.000,11671.000
14885.000,13010.000,11723.000
15057.000,13008.000,11670.000
15013.000,13017.000,11755.000
14880.000,12855.000,11789.000
15022.000,12942.000,11768.000
15127.000,12882.000,11806.000
14922.000,12995.000,11760.000
15033.000,13040.000,11757.000
14893.000,12903.000,11699.000
14870.000,13047.000,11730.000
14810.000,12897.000,11689.000
14922.000,12915.000,11730.000
14912.000,12935.000,11620.000
14844.000,12890.000,11855.000
15019.000,12939.000,11683.000
14840.000,12931.000,11690.000
14761.000,12910.000,11723.000
14976.000,12982.000,11822.000
14930.000,13068.000,11704.000
14907.000,12906.000,11695.000
14778.000,12882.000,11708.000
14932.000,12907.000,11879.000
14994.000,12995.000,11726.000
15069.000,12959.000,11833.000
14951.000,12901.000,11763.000
14971.000,12923.000,11781.000
15089.000,12914.000,11694.000
14992.000,12975.000,11783.000
14938.000,12979.000,11623.000
14980.000,12997.000,11713.000
15145.000,13071.000,11940.000
15007.000,12999.000,11746.000
15247.000,13084.000,11887.000
15183.000,13033.000,11819.000
15145.000,13201.000,11925.000
15269.000,13137.000,11923.000
15229.000,13223.000,12011.000
15343.000,13301.000,11980.000
15334.000,13212.000,12038.000
15249.000,13218.000,12015.000
15446.000,13320.000,12147.000
15429.000,13351.000,12028.000
15342.000,13328.000,12089.000
15376.000,13229.000,12192.000
15402.000,13372.000,12126.000
15402.000,13460.000,12126.000
15447.000,13281.000,12085.000
15330.000,13280.000,12008.000
15410.000,13324.000,12025.000
15610.000,13327.000,12199.000
15375.000,13399.000,12141.000
15509.000,13458.000,12061.000
15476.000,13468.000,12184.000
15591.000,13483.000,12304.000
15572.000,13527.000,12315.000
15617.000,13419.000,12291.000
15800.000,13486.000,12117.000
15551.000,13505.000,12194.000
15516.000,13416.000,12092.000
15539.000,13414.000,12129.000
15408.000,13424.000,12032.000
15376.000,13527.000,12192.000
15521.000,13400.000,12194.000
15539.000,13409.000,12169.000
15705.000,13594.000,12196.000
15488.000,13526.000,12241.000
15424.000,13372.000,12194.000
15459.000,13474.000,12243.000
15700.000,13531.000,12282.000
15409.000,13392.000,12164.000
15529.000,13448.000,12183.000
15596.000,13377.000,12094.000
15498.000,13411.000,12223.000
15576.000,13518.000,12357.000
15651.000,13563.000,12183.000
15687.000,13473.000,12373.000
15608.000,13327.000,12133.000
15565.000,13453.000,12282.000
15703.000,13527.000,12168.000
15667.000,13641.000,12271.000
15682.000,13632.000,12191.000
15790.000,13677.000,12345.000
15788.000,13473.000,12339.000
15848.000,13687.000,12291.000
15891.000,13698.000,12415.000
15728.000,13805.000,12346.000
15893.000,13575.000,12379.000
15722.000,13678.000,12395.000
15897.000,13622.000,12329.000
15851.000,13579.000,12480.000
15714.000,13708.000,12326.000
15745.000,13734.000,12340.000
15824.000,13649.000,12381.000
15959.000,13671.000,12482.000
16104.000,13725.000,12530.000
15900.000,13763.000,12511.000
15989.000,13883.000,12365.000
15802.000,13690.000,12361.000
15899.000,13751.000,12427.000
15863.000,13881.000,12505.000
15976.000,13815.000,12623.000
15928.000,13823.000,12542.000
16058.000,13910.000,12515.000
16075.000,13879.000,12525.000
16145.000,13824.000,12489.000
16208.000,13976.000,12535.000
16022.000,13966.000,12716.000
16088.000,13979.000,12514.000
16128.000,13901.000,12639.000
16097.000,14027.000,12763.000
16314.000,13937.000,12587.000
16362.000,14163.000,12668.000
16261.000,14006.000,12698.000
16181.000,14043.000,12767.000
16270.000,14135.000,12671.000
16171.000,14083.000,12752.000
16137.000,14004.000,12737.000
16256.000,13912.000,12662.000
16220.000,14077.000,12702.000
16156.000,14001.000,12718.000
16234.000,14073.000,12659.000
16151.000,14014.000,12632.000
16123.000,13887.000,12631.000
16119.000,13981.000,12657.000
15971.000,13950.000,12613.000
16030.000,13914.000,12560.000
15911.000,13928.000,12589.000
16125.000,13834.000,12617.000
16068.000,13828.000,12604.000
15937.000,13810.000,12493.000
15944.000,13743.000,12504.000
15850.000,13852.000,12485.000
15984.000,13996.000,12569.000
16027.000,13960.000,12706.000
16198.000,13893.000,12668.000
16168.000,14092.000,12656.000
16148.000,14015.000,12688.000
16130.000,13894.000,12608.000
16183.000,13987.000,12618.000
16133.000,13892.000,12612.000
16132.000,13982.000,12564.000
16160.000,13885.000,12687.000
16086.000,14004.000,12725.000
16070.000,13983.000,12777.000
16125.000,13996.000,12675.000
16230.000,14029.000,12666.000
16055.000,13950.000,12672.000
16170.000,14014.000,12700.000
16294.000,14100.000,12717.000
16217.000,13942.000,12780.000
16217.000,14007.000,12685.000
16383.000,14136.000,12727.000
16253.000,14036.000,12741.000
16266.000,13978.000,12709.000
16163.000,13932.000,12618.000
16151.000,14119.000,12788.000
16217.000,14111.000,12729.000
16351.000,13982.000,12745.000
16410.000,14203.000,12788.000
16227.000,14123.000,12753.000
16406.000,14004.000,12739.000
16318.000,14127.000,12816.000
16349.000,14140.000,12767.000
16355.000,14182.000,12803.000
16334.000,14141.000,12764.000
16244.000,14219.000,12950.000
16515.000,14229.000,12861.000
16506.000,14297.000,12876.000
16491.000,14388.000,12946.000
16632.000,14383.000,12961.000
16487.000,14352.000,12904.000
16522.000,14329.000,12951.000
16562.000,14344.000,12861.000
16643.000,14295.000,12928.000
16593.000,14409.000,12929.000
16558.000,14409.000,13078.000
16693.000,14314.000,13046.000
16637.000,14392.000,12930.000
16724.000,14375.000,12901.000
16868.000,14354.000,12999.000
16662.000,14449.000,13061.000
16625.000,14363.000,12984.000
16595.000,14430.000,13008.000
16520.000,14386.000,12948.000
16512.000,14267.000,12962.000
16533.000,14274.000,12852.000
16522.000,14158.000,12826.000
16299.000,14392.000,12765.000
16570.000,14223.000,12808.000
16549.000,14260.000,12992.000
16600.000,14456.000,13003.000
16589.000,14392.000,12909.000
16677.000,14436.000,12969.000
16560.000,14371.000,13010.000
16598.000,14299.000,12924.000
16742.000,14355.000,12910.000
16761.000,14559.000,13120.000
16765.000,14361.000,12975.000
16570.000,14389.000,12898.000
16665.000,14248.000,12934.000
16613.000,14263.000,13079.000
16642.000,14402.000,13004.000
16561.000,14448.000,12850.000
16483.000,14209.000,12918.000
16304.000,14168.000,12767.000
16408.000,14081.000,12673.000
16392.000,14290.000,12828.000
16450.000,14056.000,12795.000
16304.000,14145.000,12736.000
16351.000,14140.000,12834.000
16485.000,14006.000,12736.000
16386.000,14078.000,12771.000
16296.000,14180.000,12841.000
16422.000,14165.000,12782.000
16376.000,14289.000,12792.000
16473.000,14175.000,12801.000
16429.000,14226.000,12912.000
16475.000,14374.000,12961.000
16480.000,14188.000,12838.000
16493.000,14171.000,12803.000
16398.000,14125.000,12801.000
16374.000,14164.000,12668.000
16386.000,14134.000,12798.000
16359.000,14163.000,12746.000
16421.000,14108.000,12648.000
16349.000,14107.000,12746.000
16347.000,14323.000,12879.000
16472.000,14327.000,12886.000
16475.000,14213.000,12887.000
16529.000,14298.000,12905.000
16445.000,14191.000,12895.000
16502.000,14195.000,12804.000
16612.000,14326.000,12982.000
16676.000,14472.000,12999.000
16444.000,14136.000,12822.000
16504.000,14116.000,12856.000
16311.000,14061.000,12899.000
16527.000,14142.000,12890.000
16539.000,14188.000,12788.000
16298.000,14250.000,12967.000
16391.000,14097.000,12884.000
16519.000,14352.000,12995.000
16480.000,14291.000,12942.000
16522.000,14275.000,12859.000
16496.000,14441.000,12828.000
16559.000,14310.000,12853.000
16704.000,14391.000,13065.000
16678.000,14315.000,12957.000
16647.000,14516.000,12970.000
16613.000,14323.000,13006.000
16603.000,14421.000,12984.000
16577.000,14477.000,12892.000
16727.000,14377.000,12885.000
16674.000,14330.000,12974.000
16786.000,14416.000,12890.000
16609.000,14422.000,12946.000
16718.000,14534.000,12940.000
16778.000,14484.000,13098.000
16753.000,14438.000,12989.000
16608.000,14435.000,12894.000
16697.000,14368.000,12935.000
16523.000,14430.000,13047.000
16642.000,14405.000,12986.000
16649.000,14310.000,13094.000
16652.000,14339.000,12991.000
16711.000,14568.000,13098.000
16722.000,14469.000,13085.000
16597.000,14432.000,13104.000
16576.000,14445.000,12945.000
16651.000,14443.000,13020.000
