Focus Mode,Read Mode,Exposure Time (sec),Number of Frames,Start Y,End Y,Date,Time,Position (microns)
Single Acquisition,Spectrum,20.000000,3,105,125,2/10/2021,2:35:55 PM,0.000000,0.000000,220.000000,

1245.000,1244.000,1249.000
1249.000,1245.000,1251.000
1248.000,1243.000,1244.000
1243.000,1245.000,1247.000
1246.000,1238.000,1250.000
1246.000,1250.000,1251.000
1251.000,1255.000,1253.000
1253.000,1256.000,1247.000
1245.000,1250.000,1257.000
1248.000,1254.000,1255.000
1255.000,1258.000,1253.000
1253.000,1251.000,1257.000
1254.000,1253.000,1256.000
1258.000,1250.000,1253.000
1248.000,1263.000,1255.000
1259.000,1264.000,1257.000
1259.000,1260.000,1265.000
1259.000,1264.000,1260.000
1262.000,1258.000,1264.000
1264.000,1262.000,1267.000
1258.000,1261.000,1266.000
1269.000,1260.000,1259.000
1262.000,1253.000,1268.000
1263.000,1265.000,1261.000
1269.000,1264.000,1264.000
1280.000,1278.000,1271.000
1278.000,1265.000,1270.000
1278.000,1277.000,1280.000
1278.000,1275.000,1277.000
1277.000,1283.000,1285.000
1280.000,1281.000,1277.000
1294.000,1282.000,1277.000
1284.000,1288.000,1284.000
1284.000,1282.000,1283.000
1284.000,1295.000,1284.000
1292.000,1296.000,1291.000
1287.000,1296.000,1295.000
1290.000,1302.000,1299.000
1300.000,1297.000,1287.000
1304.000,1296.000,1293.000
1303.000,1307.000,1305.000
1292.000,1301.000,1299.000
1303.000,1304.000,1300.000
1303.000,1313.000,1304.000
1302.000,1303.000,1305.000
1309.000,1318.000,1318.000
1325.000,1319.000,1317.000
1318.000,1334.000,1312.000
1319.000,1323.000,1314.000
1322.000,1321.000,1339.000
1338.000,1329.000,1327.000
1333.000,1346.000,1327.000
1331.000,1340.000,1331.000
1343.000,1336.000,1346.000
1334.000,1349.000,1349.000
1355.000,1350.000,1353.000
1356.000,1355.000,1358.000
1361.000,1355.000,1376.000
1366.000,1355.000,1370.000
1371.000,1368.000,1371.000
1380.000,1381.000,1380.000
1385.000,1374.000,1378.000
1377.000,1396.000,1397.000
1385.000,1387.000,1390.000
1391.000,1381.000,1396.000
1400.000,1414.000,1419.000
1411.000,1409.000,1405.000
1428.000,1416.000,1423.000
1405.000,1422.000,1437.000
1431.000,1414.000,1435.000
1442.000,1436.000,1451.000
1441.000,1447.000,1451.000
1456.000,1445.000,1445.000
1465.000,1471.000,1461.000
1465.000,1485.000,1481.000
1500.000,1498.000,1502.000
1511.000,1498.000,1498.000
1520.000,1526.000,1531.000
1524.000,1536.000,1532.000
1537.000,1546.000,1548.000
1547.000,1559.000,1556.000
1543.000,1558.000,1573.000
1550.000,1593.000,1596.000
1592.000,1593.000,1608.000
1596.000,1605.000,1618.000
1623.000,1609.000,1616.000
1631.000,1638.000,1642.000
1632.000,1652.000,1644.000
1656.000,1674.000,1659.000
1677.000,1672.000,1672.000
1700.000,1701.000,1686.000
1701.000,1704.000,1705.000
1730.000,1708.000,1734.000
1750.000,1753.000,1725.000
1761.000,1786.000,1750.000
1800.000,1809.000,1826.000
1830.000,1875.000,1835.000
1867.000,1903.000,1890.000
1956.000,1976.000,1971.000
2022.000,2051.000,2034.000
2113.000,2070.000,2112.000
2211.000,2207.000,2191.000
2279.000,2281.000,2281.000
2364.000,2358.000,2361.000
2419.000,2687.000,2415.000
2507.000,3011.000,2491.000
2521.000,2643.000,2534.000
2535.000,2553.000,2536.000
2557.000,2541.000,2603.000
2584.000,2572.000,2613.000
2641.000,2625.000,2600.000
2640.000,2613.000,2623.000
2606.000,2627.000,2670.000
2667.000,2676.000,2666.000
2707.000,2733.000,2723.000
2754.000,2717.000,2748.000
2832.000,2834.000,2897.000
2934.000,2988.000,2972.000
3108.000,3162.000,3158.000
3369.000,3376.000,3410.000
3769.000,3862.000,3867.000
4497.000,4607.000,4628.000
5995.000,6081.000,6315.000
9992.000,10147.000,10836.000
22423.000,23314.000,25001.000
62281.000,61675.000,61666.000
61541.000,62161.000,62160.000
62056.000,62080.000,62081.000
62014.000,62017.000,62022.000
62032.000,62029.000,62029.000
62022.000,62024.000,62020.000
62000.000,61998.000,62002.000
61994.000,61999.000,62002.000
62003.000,62002.000,62006.000
61992.000,61991.000,61997.000
61989.000,61997.000,61991.000
61992.000,61996.000,61995.000
61988.000,61990.000,61994.000
61980.000,61991.000,61987.000
61993.000,61987.000,61990.000
61986.000,61988.000,61992.000
61986.000,61988.000,61988.000
61986.000,61988.000,61986.000
61981.000,61995.000,61994.000
61988.000,61989.000,61989.000
61986.000,61988.000,61982.000
61984.000,61988.000,61989.000
61982.000,61984.000,61989.000
61986.000,61988.000,61982.000
61984.000,61987.000,61988.000
61982.000,61986.000,61987.000
61986.000,61988.000,61986.000
61978.000,61986.000,61986.000
61986.000,61982.000,61984.000
61981.000,61980.000,61990.000
61987.000,61984.000,61986.000
61983.000,61985.000,61984.000
61983.000,61985.000,61986.000
61980.000,61983.000,61989.000
61982.000,61982.000,61988.000
61981.000,61987.000,61992.000
61980.000,61982.000,61985.000
61991.000,61987.000,61987.000
61986.000,61980.000,61987.000
61985.000,61982.000,61986.000
61990.000,61981.000,61987.000
61987.000,61981.000,61987.000
61989.000,61982.000,61983.000
61986.000,61991.000,61988.000
61988.000,61984.000,61984.000
61991.000,61988.000,61988.000
61990.000,61988.000,61984.000
61992.000,61985.000,61991.000
62015.000,61989.000,61992.000
62043.000,62005.000,62008.000
6666.000,62027.000,62026.000
1559.000,62383.000,43863.000
1548.000,1673.000,1658.000
1541.000,1562.000,1569.000
1541.000,1543.000,1541.000
1516.000,1532.000,1539.000
1502.000,1520.000,1519.000
1506.000,1498.000,1509.000
1477.000,1491.000,1500.000
1465.000,1499.000,1484.000
1459.000,1464.000,1482.000
1454.000,1480.000,1469.000
1447.000,1453.000,1456.000
1428.000,1446.000,1472.000
1442.000,1448.000,1442.000
1430.000,1436.000,1432.000
1425.000,1428.000,1439.000
1414.000,1420.000,1430.000
1413.000,1411.000,1417.000
1410.000,1423.000,1429.000
1411.000,1416.000,1404.000
1401.000,1383.000,1412.000
1391.000,1416.000,1413.000
1394.000,1397.000,1406.000
1377.000,1406.000,1402.000
1393.000,1407.000,1383.000
1385.000,1410.000,1402.000
1403.000,1385.000,1396.000
1383.000,1389.000,1395.000
1383.000,1399.000,1385.000
1380.000,1388.000,1392.000
1380.000,1380.000,1378.000
1353.000,1373.000,1376.000
1367.000,1393.000,1363.000
1358.000,1366.000,1369.000
1374.000,1361.000,1359.000
1371.000,1366.000,1359.000
1347.000,1363.000,1364.000
1339.000,1352.000,1363.000
1353.000,1355.000,1352.000
1353.000,1349.000,1355.000
1340.000,1351.000,1345.000
1352.000,1349.000,1349.000
1341.000,1343.000,1337.000
1346.000,1359.000,1349.000
1328.000,1336.000,1332.000
1349.000,1352.000,1328.000
1330.000,1339.000,1343.000
1334.000,1337.000,1337.000
1330.000,1342.000,1338.000
1336.000,1333.000,1323.000
1318.000,1343.000,1329.000
1321.000,1328.000,1339.000
1328.000,1329.000,1333.000
1326.000,1329.000,1336.000
1313.000,1326.000,1322.000
1313.000,1324.000,1319.000
1319.000,1330.000,1326.000
1322.000,1313.000,1319.000
1308.000,1327.000,1327.000
1322.000,1318.000,1321.000
1319.000,1324.000,1323.000
1318.000,1315.000,1315.000
1319.000,1314.000,1326.000
1313.000,1325.000,1310.000
1316.000,1301.000,1312.000
1305.000,1307.000,1304.000
1308.000,1309.000,1310.000
1314.000,1312.000,1313.000
1303.000,1310.000,1301.000
1296.000,1304.000,1307.000
1300.000,1309.000,1296.000
1301.000,1307.000,1302.000
1303.000,1307.000,1301.000
1302.000,1303.000,1303.000
1300.000,1292.000,1303.000
1294.000,1294.000,1300.000
1302.000,1299.000,1295.000
1301.000,1308.000,1297.000
1301.000,1300.000,1296.000
1296.000,1297.000,1300.000
1287.000,1294.000,1299.000
1292.000,1296.000,1311.000
1296.000,1306.000,1297.000
1293.000,1287.000,1305.000
1295.000,1293.000,1303.000
1290.000,1297.000,1298.000
1288.000,1306.000,1296.000
1289.000,1291.000,1295.000
1283.000,1292.000,1295.000
1291.000,1280.000,1295.000
1291.000,1286.000,1295.000
1291.000,1288.000,1286.000
1287.000,1294.000,1274.000
1285.000,1279.000,1296.000
1286.000,1286.000,1292.000
1297.000,1291.000,1287.000
1283.000,1288.000,1288.000
1280.000,1289.000,1288.000
1289.000,1279.000,1286.000
1276.000,1289.000,1281.000
1289.000,1287.000,1285.000
1279.000,1282.000,1289.000
1287.000,1288.000,1289.000
1283.000,1287.000,1291.000
1282.000,1281.000,1282.000
1280.000,1283.000,1284.000
1284.000,1288.000,1290.000
1284.000,1290.000,1283.000
1282.000,1287.000,1291.000
1286.000,1291.000,1295.000
1293.000,1280.000,1290.000
1290.000,1293.000,1285.000
1281.000,1279.000,1287.000
1298.000,1293.000,1291.000
1282.000,1288.000,1294.000
1297.000,1293.000,1293.000
1292.000,1287.000,1300.000
1288.000,1300.000,1306.000
1289.000,1301.000,1297.000
1307.000,1302.000,1302.000
1291.000,1305.000,1306.000
1308.000,1307.000,1317.000
1303.000,1313.000,1321.000
1318.000,1313.000,1311.000
1323.000,1318.000,1322.000
1330.000,1339.000,1333.000
1346.000,1341.000,1339.000
1363.000,1356.000,1343.000
1373.000,1370.000,1367.000
1389.000,1371.000,1379.000
1395.000,1399.000,1399.000
1429.000,1413.000,1424.000
1451.000,1435.000,1470.000
1478.000,1461.000,1496.000
1517.000,1502.000,1505.000
1551.000,1552.000,1558.000
1580.000,1595.000,1594.000
1661.000,1647.000,1640.000
1726.000,1717.000,1705.000
1781.000,1757.000,1775.000
1846.000,1822.000,1824.000
1909.000,1904.000,1926.000
1995.000,1989.000,1943.000
2056.000,2067.000,2065.000
2132.000,2121.000,2121.000
2201.000,2163.000,2213.000
2272.000,2260.000,2304.000
2313.000,2343.000,2346.000
2417.000,2401.000,2415.000
2473.000,2414.000,2441.000
2473.000,2472.000,2470.000
2484.000,2518.000,2507.000
2565.000,2492.000,2507.000
2535.000,2508.000,2519.000
2549.000,2563.000,2542.000
2517.000,2530.000,2525.000
2510.000,2523.000,2468.000
2521.000,2534.000,2492.000
2515.000,2520.000,2493.000
2493.000,2520.000,2486.000
2504.000,2497.000,2512.000
2495.000,2445.000,2476.000
2455.000,2472.000,2500.000
2432.000,2451.000,2419.000
2475.000,2454.000,2475.000
2436.000,2426.000,2392.000
2456.000,2421.000,2414.000
2420.000,2409.000,2398.000
2405.000,2401.000,2392.000
2397.000,2402.000,2398.000
2363.000,2375.000,2378.000
2384.000,2356.000,2376.000
2398.000,2357.000,2393.000
2353.000,2337.000,2344.000
2347.000,2340.000,2353.000
2296.000,2335.000,2310.000
2311.000,2331.000,2314.000
2342.000,2308.000,2303.000
2275.000,2298.000,2341.000
2323.000,2311.000,2326.000
2270.000,2269.000,2308.000
2281.000,2264.000,2276.000
2298.000,2311.000,2288.000
2291.000,2280.000,2265.000
2279.000,2256.000,2307.000
2258.000,2253.000,2264.000
2246.000,2271.000,2255.000
2263.000,2242.000,2258.000
2260.000,2237.000,2216.000
2244.000,2234.000,2265.000
2251.000,2259.000,2233.000
2225.000,2203.000,2219.000
2213.000,2237.000,2225.000
2215.000,2278.000,2239.000
2243.000,2238.000,2268.000
2258.000,2235.000,2229.000
2253.000,2253.000,2238.000
2224.000,2266.000,2189.000
2256.000,2245.000,2232.000
2260.000,2206.000,2255.000
2230.000,2231.000,2203.000
2240.000,2224.000,2233.000
2230.000,2251.000,2207.000
2243.000,2243.000,2214.000
2223.000,2217.000,2199.000
2216.000,2224.000,2224.000
2224.000,2251.000,2261.000
2214.000,2215.000,2246.000
2230.000,2230.000,2220.000
2217.000,2224.000,2259.000
2229.000,2218.000,2231.000
2254.000,2236.000,2229.000
2265.000,2205.000,2238.000
2240.000,2250.000,2233.000
2248.000,2235.000,2229.000
2282.000,2234.000,2262.000
2242.000,2255.000,2253.000
2248.000,2277.000,2261.000
2258.000,2253.000,2265.000
2265.000,2266.000,2266.000
2296.000,2272.000,2245.000
2272.000,2280.000,2285.000
2274.000,2270.000,2281.000
2282.000,2286.000,2259.000
2266.000,2305.000,2265.000
2277.000,2269.000,2279.000
2307.000,2276.000,2292.000
2274.000,2306.000,2279.000
2303.000,2300.000,2286.000
2265.000,2300.000,2293.000
2282.000,2296.000,2290.000
2290.000,2308.000,2299.000
2277.000,2299.000,2285.000
2301.000,2300.000,2321.000
2325.000,2288.000,2314.000
2319.000,2310.000,2317.000
2313.000,2306.000,2299.000
2335.000,2320.000,2297.000
2321.000,2290.000,2335.000
2334.000,2359.000,2302.000
2335.000,2365.000,2323.000
2342.000,2315.000,2329.000
2346.000,2331.000,2336.000
2354.000,2353.000,2379.000
2357.000,2332.000,2365.000
2316.000,2348.000,2349.000
2423.000,2357.000,2384.000
2365.000,2332.000,2358.000
2371.000,2367.000,2378.000
2349.000,2423.000,2425.000
2403.000,2410.000,2420.000
2377.000,2423.000,2412.000
2409.000,2402.000,2400.000
2434.000,2420.000,2433.000
2416.000,2449.000,2427.000
2439.000,2437.000,2407.000
2450.000,2473.000,2453.000
2457.000,2484.000,2477.000
2507.000,2482.000,2471.000
2500.000,2534.000,2522.000
2529.000,2516.000,2506.000
2576.000,2546.000,2562.000
2586.000,2577.000,2586.000
2605.000,2563.000,2543.000
2629.000,2612.000,2640.000
2649.000,2635.000,2646.000
2650.000,2663.000,2654.000
2680.000,2690.000,2725.000
2759.000,2778.000,2731.000
2811.000,2747.000,2748.000
2852.000,2819.000,2805.000
2892.000,2864.000,2906.000
2967.000,2972.000,2941.000
3036.000,3093.000,3053.000
3116.000,3121.000,3127.000
3189.000,3179.000,3191.000
3233.000,3247.000,3260.000
3315.000,3304.000,3337.000
3413.000,3393.000,3401.000
3491.000,3455.000,3425.000
3500.000,3545.000,3536.000
3556.000,3547.000,3547.000
3560.000,3574.000,3554.000
3571.000,3576.000,3552.000
3559.000,3518.000,3509.000
3484.000,3527.000,3551.000
3488.000,3457.000,3446.000
3438.000,3370.000,3429.000
3367.000,3347.000,3328.000
3307.000,3281.000,3297.000
3233.000,3205.000,3244.000
3148.000,3140.000,3173.000
3085.000,3076.000,3095.000
3022.000,3054.000,2982.000
2958.000,2962.000,2937.000
2927.000,2889.000,2875.000
2821.000,2872.000,2828.000
2795.000,2798.000,2821.000
2741.000,2720.000,2761.000
2723.000,2719.000,2709.000
2681.000,2681.000,2683.000
2695.000,2681.000,2633.000
2605.000,2624.000,2642.000
2606.000,2639.000,2607.000
2577.000,2566.000,2633.000
2553.000,2507.000,2525.000
2509.000,2529.000,2520.000
2510.000,2487.000,2498.000
2494.000,2510.000,2464.000
2481.000,2486.000,2505.000
2453.000,2482.000,2476.000
2443.000,2475.000,2468.000
2426.000,2471.000,2419.000
2441.000,2410.000,2412.000
2408.000,2473.000,2446.000
2421.000,2456.000,2415.000
2422.000,2423.000,2370.000
2422.000,2398.000,2462.000
2405.000,2335.000,2399.000
2408.000,2406.000,2390.000
2412.000,2367.000,2407.000
2417.000,2397.000,2381.000
2409.000,2439.000,2380.000
2383.000,2395.000,2393.000
2342.000,2379.000,2378.000
2365.000,2378.000,2395.000
2375.000,2357.000,2366.000
2382.000,2359.000,2372.000
2387.000,2386.000,2372.000
2339.000,2368.000,2326.000
2339.000,2327.000,2341.000
2339.000,2336.000,2332.000
2375.000,2343.000,2328.000
2359.000,2323.000,2336.000
2296.000,2293.000,2314.000
2287.000,2302.000,2279.000
2303.000,2287.000,2275.000
2280.000,2277.000,2272.000
2253.000,2264.000,2248.000
2241.000,2217.000,2271.000
2195.000,2206.000,2233.000
2186.000,2216.000,2241.000
2155.000,2201.000,2232.000
2181.000,2192.000,2181.000
2175.000,2165.000,2201.000
2180.000,2190.000,2178.000
2154.000,2156.000,2146.000
2142.000,2153.000,2150.000
2134.000,2128.000,2134.000
2142.000,2152.000,2153.000
2139.000,2125.000,2099.000
2124.000,2103.000,2112.000
2127.000,2127.000,2157.000
2103.000,2113.000,2109.000
2124.000,2093.000,2086.000
2101.000,2092.000,2073.000
2121.000,2080.000,2071.000
2107.000,2080.000,2057.000
2072.000,2077.000,2103.000
2086.000,2076.000,2085.000
2062.000,2072.000,2091.000
2054.000,2101.000,2067.000
2074.000,2072.000,2075.000
2078.000,2062.000,2061.000
2022.000,2063.000,2057.000
2028.000,2026.000,2032.000
2070.000,2017.000,2099.000
2073.000,2058.000,2060.000
2057.000,2044.000,2045.000
2063.000,2017.000,2033.000
2034.000,2046.000,2047.000
2057.000,2034.000,2058.000
2015.000,2054.000,2005.000
2030.000,2012.000,2020.000
2033.000,2031.000,2033.000
2026.000,2012.000,2021.000
2027.000,2013.000,2048.000
2025.000,2001.000,2059.000
2034.000,2004.000,1978.000
2015.000,2000.000,2033.000
2021.000,2034.000,2029.000
2023.000,2003.000,2005.000
1994.000,2041.000,2009.000
2016.000,2002.000,2036.000
2039.000,2027.000,2031.000
2037.000,2020.000,1997.000
2031.000,2019.000,2027.000
2008.000,1980.000,2005.000
2054.000,1999.000,1996.000
2029.000,2030.000,2000.000
2013.000,1996.000,2018.000
2005.000,2011.000,2019.000
1993.000,1986.000,2010.000
2024.000,2027.000,2056.000
2016.000,1999.000,2024.000
2010.000,2019.000,1996.000
2004.000,1980.000,2010.000
2002.000,1992.000,2034.000
2000.000,2010.000,2018.000
2022.000,2017.000,2010.000
2004.000,2009.000,2007.000
2027.000,2022.000,2021.000
2003.000,2011.000,2021.000
1992.000,1981.000,1985.000
2005.000,1984.000,2013.000
1983.000,1988.000,1975.000
2018.000,2016.000,2004.000
1997.000,1983.000,1987.000
1990.000,2009.000,1992.000
2035.000,2001.000,2015.000
2017.000,2019.000,2018.000
2025.000,2003.000,2012.000
2035.000,1993.000,1993.000
2035.000,2032.000,1997.000
2051.000,2027.000,2012.000
2015.000,2009.000,2009.000
2041.000,1982.000,1991.000
2015.000,1984.000,2041.000
2031.000,1994.000,2002.000
1986.000,2020.000,2010.000
1995.000,1995.000,1994.000
1993.000,2012.000,1980.000
1997.000,1971.000,1996.000
2000.000,1998.000,1958.000
1978.000,1977.000,2019.000
1968.000,1999.000,1969.000
1999.000,2007.000,1979.000
1967.000,1975.000,1977.000
1997.000,1968.000,1954.000
1976.000,1960.000,1989.000
1982.000,1958.000,1947.000
1994.000,1975.000,1974.000
1952.000,1979.000,1952.000
1943.000,1982.000,1979.000
1968.000,1953.000,1979.000
1967.000,1933.000,1945.000
1935.000,1958.000,1955.000
1949.000,1906.000,1933.000
1947.000,1948.000,1916.000
1922.000,1964.000,1895.000
1925.000,1963.000,1915.000
1943.000,1935.000,1961.000
1923.000,1936.000,1935.000
1960.000,1947.000,1940.000
1932.000,1932.000,1928.000
1926.000,1936.000,1943.000
1933.000,1931.000,1924.000
1906.000,1919.000,1967.000
1934.000,1929.000,1934.000
1931.000,1936.000,1923.000
1918.000,1921.000,1904.000
1894.000,1936.000,1935.000
1905.000,1937.000,1943.000
1912.000,1915.000,1926.000
1915.000,1936.000,1923.000
1912.000,1939.000,1940.000
1933.000,1913.000,1906.000
1917.000,1913.000,1903.000
1913.000,1910.000,1923.000
1913.000,1919.000,1924.000
1942.000,1916.000,1906.000
1950.000,1921.000,1934.000
1918.000,1910.000,1927.000
1883.000,1904.000,1947.000
1917.000,1929.000,1895.000
1906.000,1900.000,1946.000
1945.000,1931.000,1928.000
1899.000,1926.000,1915.000
1909.000,1898.000,1918.000
1950.000,1912.000,1887.000
1935.000,1914.000,1902.000
1924.000,1898.000,1922.000
1934.000,1918.000,1896.000
1896.000,1903.000,1916.000
1912.000,1931.000,1904.000
1913.000,1896.000,1916.000
1947.000,1910.000,1873.000
1903.000,1911.000,1915.000
1889.000,1911.000,1920.000
1906.000,1904.000,1890.000
1903.000,1896.000,1879.000
1920.000,1910.000,1918.000
1944.000,1899.000,1902.000
1908.000,1912.000,1916.000
1906.000,1900.000,1921.000
1923.000,1911.000,1920.000
1907.000,1902.000,1892.000
1928.000,1903.000,1905.000
1909.000,1938.000,1875.000
1913.000,1923.000,1936.000
1903.000,1905.000,1924.000
1904.000,1899.000,1901.000
1925.000,1894.000,1891.000
1909.000,1922.000,1907.000
1922.000,1897.000,1897.000
1922.000,1899.000,1916.000
1904.000,1882.000,1898.000
1906.000,1904.000,1911.000
1901.000,1893.000,1924.000
1921.000,1901.000,1921.000
1910.000,1917.000,1904.000
1891.000,1890.000,1911.000
1887.000,1897.000,1899.000
1902.000,1928.000,1878.000
1934.000,1896.000,1908.000
1888.000,1902.000,1911.000
1911.000,1935.000,1898.000
1893.000,1913.000,1911.000
1887.000,1882.000,1914.000
1933.000,1877.000,1947.000
1900.000,1892.000,1885.000
1924.000,1896.000,1913.000
1887.000,1903.000,1911.000
1892.000,1908.000,1911.000
1901.000,1910.000,1897.000
1891.000,1897.000,1899.000
1899.000,1873.000,1919.000
1909.000,1901.000,1913.000
1913.000,1901.000,1908.000
1898.000,1904.000,1890.000
1921.000,1895.000,1873.000
1898.000,1895.000,1895.000
1894.000,1894.000,1918.000
1914.000,1916.000,1902.000
1888.000,1898.000,1909.000
