Focus Mode,Read Mode,Exposure Time (sec),Number of Frames,Start Y,End Y,Date,Time,Position (microns)
Single Acquisition,Spectrum,20.000000,3,105,125,2/11/2021,4:54:59 PM,0.000000,0.000000,200.010000,

1257.000,1261.000,1262.000
1255.000,1254.000,1256.000
1258.000,1267.000,1262.000
1255.000,1257.000,1259.000
1267.000,1259.000,1258.000
1257.000,1264.000,1263.000
1260.000,1255.000,1265.000
1265.000,1264.000,1256.000
1264.000,1254.000,1266.000
1258.000,1256.000,1266.000
1257.000,1267.000,1264.000
1258.000,1256.000,1270.000
1261.000,1259.000,1272.000
1256.000,1259.000,1266.000
1257.000,1267.000,1267.000
1261.000,1269.000,1271.000
1265.000,1264.000,1276.000
1266.000,1258.000,1265.000
1266.000,1267.000,1264.000
1267.000,1274.000,1270.000
1267.000,1268.000,1273.000
1273.000,1274.000,1271.000
1270.000,1273.000,1271.000
1275.000,1280.000,1286.000
1273.000,1275.000,1283.000
1280.000,1285.000,1287.000
1273.000,1283.000,1285.000
1272.000,1279.000,1282.000
1287.000,1285.000,1285.000
1281.000,1287.000,1288.000
1285.000,1281.000,1284.000
1287.000,1291.000,1297.000
1292.000,1295.000,1299.000
1290.000,1290.000,1289.000
1305.000,1292.000,1295.000
1300.000,1293.000,1304.000
1302.000,1295.000,1308.000
1292.000,1303.000,1313.000
1310.000,1312.000,1312.000
1305.000,1310.000,1302.000
1301.000,1299.000,1319.000
1319.000,1311.000,1315.000
1316.000,1317.000,1319.000
1316.000,1317.000,1329.000
1328.000,1331.000,1329.000
1328.000,1337.000,1336.000
1331.000,1331.000,1329.000
1329.000,1330.000,1348.000
1344.000,1341.000,1346.000
1343.000,1347.000,1348.000
1347.000,1341.000,1371.000
1364.000,1352.000,1356.000
1351.000,1358.000,1375.000
1359.000,1361.000,1384.000
1367.000,1359.000,1383.000
1375.000,1376.000,1388.000
1380.000,1387.000,1379.000
1386.000,1386.000,1391.000
1387.000,1385.000,1405.000
1380.000,1389.000,1400.000
1391.000,1391.000,1405.000
1378.000,1395.000,1405.000
1397.000,1400.000,1403.000
1387.000,1396.000,1405.000
1413.000,1396.000,1402.000
1397.000,1422.000,1419.000
1403.000,1415.000,1415.000
1409.000,1421.000,1420.000
1425.000,1428.000,1433.000
1433.000,1443.000,1445.000
1453.000,1449.000,1449.000
1456.000,1460.000,1462.000
1460.000,1469.000,1491.000
1477.000,1480.000,1492.000
1483.000,1493.000,1504.000
1488.000,1505.000,1532.000
1528.000,1507.000,1529.000
1530.000,1522.000,1545.000
1539.000,1536.000,1545.000
1542.000,1568.000,1571.000
1530.000,1551.000,1565.000
1548.000,1550.000,1561.000
1570.000,1585.000,1597.000
1579.000,1583.000,1575.000
1586.000,1601.000,1604.000
1593.000,1609.000,1610.000
1611.000,1579.000,1623.000
1633.000,1597.000,1609.000
1621.000,1616.000,1620.000
1639.000,1649.000,1635.000
1642.000,1637.000,1663.000
1649.000,1655.000,1663.000
1671.000,1674.000,1702.000
1695.000,1700.000,1698.000
1728.000,1730.000,1737.000
1753.000,1723.000,1716.000
1760.000,1753.000,1746.000
1802.000,1776.000,1805.000
1824.000,1849.000,1840.000
1904.000,1882.000,1912.000
1923.000,1938.000,1913.000
1987.000,2007.000,1995.000
2066.000,2073.000,2048.000
2109.000,2108.000,2125.000
2169.000,2154.000,2190.000
2207.000,2241.000,2222.000
2290.000,2246.000,2253.000
2292.000,2272.000,2268.000
2299.000,2269.000,2308.000
2307.000,2288.000,2300.000
2382.000,2325.000,2369.000
2369.000,2397.000,2339.000
2405.000,2402.000,2399.000
2409.000,2456.000,2431.000
2439.000,2510.000,2465.000
2540.000,2562.000,2575.000
2655.000,2625.000,2682.000
2780.000,2766.000,2759.000
2944.000,2918.000,2886.000
3165.000,3188.000,3128.000
3579.000,3575.000,3538.000
4215.000,4283.000,4227.000
5652.000,5691.000,5576.000
9311.000,9305.000,9133.000
20552.000,20637.000,19719.000
61703.000,61747.000,61675.000
62185.000,62197.000,62191.000
62106.000,62112.000,62107.000
62041.000,62041.000,62043.000
62051.000,62056.000,62046.000
62048.000,62056.000,62052.000
62027.000,62031.000,62027.000
62020.000,62028.000,62017.000
62025.000,62033.000,62033.000
62020.000,62022.000,62021.000
62014.000,62023.000,62019.000
62017.000,62016.000,62016.000
62018.000,62014.000,62016.000
62014.000,62016.000,62012.000
62008.000,62013.000,62016.000
62012.000,62014.000,62013.000
62011.000,62013.000,62012.000
62015.000,62012.000,62011.000
62006.000,62016.000,62013.000
62008.000,62015.000,62008.000
62011.000,62011.000,62004.000
62008.000,62008.000,62013.000
62011.000,62010.000,62007.000
62007.000,62011.000,62009.000
62010.000,62012.000,62005.000
62012.000,62015.000,62010.000
62010.000,62010.000,62000.000
62008.000,62009.000,62011.000
62010.000,62008.000,62008.000
62010.000,62012.000,62011.000
62011.000,62012.000,62010.000
62004.000,62013.000,62011.000
62010.000,62012.000,62008.000
62007.000,62010.000,62014.000
62014.000,62014.000,62003.000
62011.000,62012.000,62010.000
62005.000,62009.000,62008.000
62005.000,62012.000,62011.000
62005.000,62009.000,62010.000
62011.000,62012.000,62008.000
62010.000,62012.000,62016.000
62013.000,62010.000,62014.000
62009.000,62008.000,62007.000
62010.000,62011.000,62006.000
62013.000,62013.000,62014.000
62007.000,62012.000,62010.000
62008.000,62014.000,62010.000
62009.000,62014.000,62010.000
62014.000,62013.000,62011.000
62011.000,62016.000,62013.000
62017.000,62025.000,62013.000
62036.000,62045.000,62032.000
64745.000,65448.000,62056.000
1668.000,1682.000,6802.000
1559.000,1556.000,1571.000
1559.000,1544.000,1552.000
1527.000,1530.000,1523.000
1518.000,1523.000,1516.000
1496.000,1509.000,1523.000
1519.000,1516.000,1499.000
1491.000,1490.000,1488.000
1475.000,1486.000,1474.000
1461.000,1452.000,1462.000
1470.000,1468.000,1462.000
1451.000,1450.000,1461.000
1451.000,1455.000,1447.000
1454.000,1442.000,1442.000
1439.000,1436.000,1447.000
1421.000,1416.000,1438.000
1430.000,1421.000,1417.000
1415.000,1422.000,1421.000
1423.000,1408.000,1433.000
1413.000,1408.000,1400.000
1405.000,1398.000,1424.000
1426.000,1405.000,1413.000
1401.000,1396.000,1394.000
1391.000,1409.000,1419.000
1379.000,1397.000,1384.000
1394.000,1393.000,1393.000
1388.000,1378.000,1381.000
1392.000,1396.000,1394.000
1389.000,1381.000,1384.000
1384.000,1378.000,1387.000
1371.000,1376.000,1380.000
1374.000,1374.000,1356.000
1363.000,1382.000,1372.000
1371.000,1383.000,1382.000
1373.000,1358.000,1363.000
1361.000,1362.000,1367.000
1344.000,1367.000,1355.000
1367.000,1352.000,1363.000
1354.000,1356.000,1353.000
1358.000,1357.000,1369.000
1347.000,1349.000,1356.000
1337.000,1342.000,1348.000
1357.000,1346.000,1354.000
1347.000,1344.000,1340.000
1333.000,1347.000,1347.000
1331.000,1349.000,1339.000
1347.000,1336.000,1352.000
1337.000,1331.000,1328.000
1333.000,1341.000,1333.000
1346.000,1335.000,1333.000
1332.000,1335.000,1316.000
1327.000,1331.000,1331.000
1333.000,1326.000,1323.000
1323.000,1332.000,1329.000
1333.000,1334.000,1333.000
1326.000,1324.000,1340.000
1324.000,1332.000,1329.000
1324.000,1320.000,1333.000
1320.000,1324.000,1328.000
1312.000,1320.000,1325.000
1324.000,1327.000,1318.000
1317.000,1318.000,1310.000
1316.000,1325.000,1319.000
1319.000,1320.000,1314.000
1308.000,1309.000,1312.000
1313.000,1319.000,1311.000
1314.000,1320.000,1317.000
1312.000,1307.000,1307.000
1308.000,1307.000,1313.000
1295.000,1309.000,1314.000
1311.000,1315.000,1311.000
1306.000,1316.000,1311.000
1295.000,1302.000,1294.000
1298.000,1296.000,1312.000
1303.000,1307.000,1307.000
1301.000,1313.000,1307.000
1308.000,1300.000,1311.000
1307.000,1299.000,1303.000
1300.000,1311.000,1300.000
1290.000,1308.000,1305.000
1299.000,1303.000,1300.000
1301.000,1302.000,1304.000
1307.000,1294.000,1298.000
1298.000,1298.000,1301.000
1301.000,1293.000,1301.000
1313.000,1299.000,1315.000
1303.000,1307.000,1316.000
1292.000,1301.000,1297.000
1294.000,1303.000,1294.000
1300.000,1306.000,1299.000
1298.000,1299.000,1300.000
1296.000,1310.000,1293.000
1298.000,1286.000,1295.000
1301.000,1298.000,1295.000
1295.000,1288.000,1300.000
1293.000,1296.000,1298.000
1303.000,1299.000,1293.000
1307.000,1306.000,1295.000
1297.000,1303.000,1299.000
1290.000,1301.000,1297.000
1303.000,1300.000,1305.000
1296.000,1297.000,1303.000
1294.000,1303.000,1308.000
1310.000,1297.000,1303.000
1310.000,1308.000,1298.000
1304.000,1305.000,1305.000
1313.000,1302.000,1311.000
1314.000,1312.000,1320.000
1328.000,1316.000,1316.000
1333.000,1327.000,1319.000
1333.000,1326.000,1325.000
1340.000,1335.000,1339.000
1334.000,1343.000,1339.000
1353.000,1348.000,1351.000
1359.000,1364.000,1367.000
1374.000,1381.000,1372.000
1391.000,1376.000,1385.000
1403.000,1405.000,1401.000
1413.000,1406.000,1430.000
1454.000,1455.000,1457.000
1489.000,1477.000,1479.000
1507.000,1502.000,1510.000
1565.000,1551.000,1539.000
1605.000,1599.000,1578.000
1633.000,1643.000,1638.000
1708.000,1699.000,1709.000
1799.000,1797.000,1755.000
1900.000,1834.000,1829.000
1993.000,1949.000,1963.000
2109.000,2063.000,2092.000
2222.000,2259.000,2232.000
2427.000,2387.000,2395.000
2621.000,2551.000,2584.000
2832.000,2779.000,2801.000
3116.000,3122.000,3087.000
3450.000,3345.000,3358.000
3720.000,3639.000,3702.000
4109.000,4058.000,4074.000
4457.000,4472.000,4449.000
5020.000,4842.000,4854.000
5419.000,5330.000,5254.000
5930.000,5655.000,5757.000
6336.000,6172.000,6162.000
6735.000,6660.000,6657.000
7200.000,7039.000,7093.000
7587.000,7480.000,7467.000
7984.000,7791.000,7785.000
8190.000,8039.000,8085.000
8464.000,8330.000,8349.000
8686.000,8607.000,8562.000
8920.000,8702.000,8712.000
9021.000,8902.000,8884.000
9061.000,8864.000,8818.000
9175.000,8879.000,8848.000
9166.000,8921.000,8894.000
9219.000,8951.000,8993.000
9167.000,9051.000,9137.000
9251.000,8968.000,9061.000
9098.000,9051.000,9012.000
9085.000,8925.000,8953.000
9065.000,8913.000,8874.000
9053.000,8996.000,8922.000
9095.000,8965.000,8945.000
9178.000,8931.000,8905.000
9216.000,8911.000,8855.000
9126.000,9058.000,8962.000
9130.000,8992.000,8972.000
9181.000,8900.000,8974.000
9197.000,8956.000,9008.000
9126.000,8996.000,8951.000
9182.000,9022.000,8960.000
9149.000,8996.000,9016.000
9205.000,8954.000,9037.000
9134.000,9006.000,9016.000
9200.000,8998.000,9006.000
9149.000,9001.000,8878.000
9266.000,9040.000,9027.000
9267.000,9039.000,9033.000
9090.000,9075.000,8962.000
9138.000,8979.000,9009.000
9139.000,9060.000,9005.000
9250.000,9001.000,9060.000
9207.000,9035.000,9056.000
9223.000,9035.000,9007.000
9244.000,9051.000,9057.000
9306.000,9130.000,9037.000
9206.000,9073.000,9030.000
9202.000,9056.000,9016.000
9269.000,8970.000,8984.000
9258.000,9051.000,8958.000
9237.000,8980.000,9026.000
9219.000,8997.000,9048.000
9353.000,9156.000,9043.000
9396.000,9130.000,9055.000
9243.000,9111.000,9058.000
9423.000,9128.000,9098.000
9291.000,9154.000,9092.000
9348.000,9179.000,9155.000
9444.000,9132.000,9103.000
9368.000,9225.000,9091.000
9471.000,9258.000,9185.000
9535.000,9257.000,9267.000
9472.000,9268.000,9228.000
9586.000,9233.000,9248.000
9537.000,9358.000,9288.000
9614.000,9336.000,9177.000
9590.000,9355.000,9303.000
9538.000,9222.000,9269.000
9524.000,9378.000,9301.000
9717.000,9452.000,9307.000
9601.000,9388.000,9326.000
9581.000,9366.000,9304.000
9596.000,9446.000,9285.000
9664.000,9562.000,9315.000
9706.000,9402.000,9374.000
9675.000,9425.000,9363.000
9723.000,9468.000,9451.000
9761.000,9572.000,9326.000
9761.000,9557.000,9370.000
9862.000,9514.000,9523.000
9796.000,9508.000,9478.000
9780.000,9573.000,9420.000
9728.000,9588.000,9589.000
9920.000,9594.000,9450.000
9717.000,9567.000,9442.000
9656.000,9549.000,9409.000
9655.000,9492.000,9554.000
9820.000,9558.000,9465.000
9713.000,9621.000,9432.000
9757.000,9396.000,9508.000
9794.000,9694.000,9559.000
9809.000,9637.000,9482.000
9786.000,9621.000,9583.000
9750.000,9632.000,9528.000
9795.000,9590.000,9509.000
9842.000,9568.000,9560.000
9788.000,9565.000,9551.000
9752.000,9640.000,9468.000
9891.000,9751.000,9518.000
9809.000,9665.000,9526.000
9909.000,9709.000,9534.000
9789.000,9586.000,9526.000
9869.000,9577.000,9508.000
9921.000,9689.000,9538.000
9791.000,9654.000,9513.000
10003.000,9630.000,9545.000
9959.000,9732.000,9576.000
9983.000,9684.000,9602.000
9877.000,9674.000,9598.000
10078.000,9774.000,9695.000
10034.000,9700.000,9580.000
10009.000,9849.000,9714.000
9936.000,9777.000,9678.000
10023.000,9774.000,9737.000
10078.000,9886.000,9674.000
10044.000,9828.000,9737.000
10114.000,9972.000,9800.000
10057.000,9959.000,9883.000
10154.000,9888.000,9785.000
10032.000,9981.000,9792.000
10090.000,9891.000,9762.000
10210.000,9886.000,9785.000
10222.000,9869.000,9850.000
10112.000,9951.000,9805.000
10084.000,9864.000,9774.000
10224.000,9986.000,9791.000
10169.000,9921.000,9880.000
10210.000,9984.000,9870.000
10258.000,9961.000,9759.000
10244.000,9923.000,9701.000
10258.000,10061.000,9913.000
10133.000,10031.000,9960.000
10233.000,10011.000,9918.000
10306.000,10054.000,9851.000
10263.000,9982.000,9891.000
10230.000,10060.000,9854.000
10278.000,10029.000,9917.000
10210.000,10077.000,9849.000
10294.000,9987.000,9828.000
10251.000,9965.000,9848.000
10229.000,10018.000,9895.000
10174.000,10078.000,9850.000
10190.000,10002.000,9772.000
10282.000,10004.000,9891.000
10247.000,10036.000,9978.000
10091.000,9986.000,9815.000
10202.000,9998.000,9875.000
10188.000,10049.000,9960.000
10211.000,10002.000,9857.000
10309.000,10039.000,9979.000
10250.000,10075.000,9952.000
10206.000,10038.000,9890.000
10233.000,9999.000,9835.000
10284.000,10054.000,9983.000
10293.000,10065.000,9911.000
10345.000,10014.000,9971.000
10287.000,10039.000,9901.000
10262.000,10184.000,9945.000
10251.000,10168.000,9896.000
10302.000,9981.000,9971.000
10370.000,10126.000,9967.000
10282.000,10200.000,9940.000
10297.000,10099.000,9995.000
10274.000,9974.000,9888.000
10312.000,10000.000,9913.000
10250.000,10053.000,9993.000
10232.000,10000.000,9952.000
10289.000,10187.000,9955.000
10486.000,10031.000,9946.000
10370.000,10124.000,10100.000
10358.000,10038.000,10027.000
10331.000,10183.000,9973.000
10332.000,10146.000,9973.000
10372.000,10016.000,10005.000
10382.000,10172.000,9964.000
10353.000,10205.000,10127.000
10450.000,10228.000,10141.000
10445.000,10332.000,10107.000
10479.000,10287.000,10212.000
10503.000,10154.000,10205.000
10479.000,10255.000,10010.000
10407.000,10219.000,10135.000
10578.000,10282.000,10075.000
10524.000,10268.000,10165.000
10451.000,10200.000,10102.000
10563.000,10310.000,10076.000
10548.000,10278.000,10186.000
10620.000,10197.000,10174.000
10530.000,10297.000,10302.000
10556.000,10313.000,10085.000
10423.000,10152.000,10123.000
10426.000,10216.000,9998.000
10407.000,10077.000,10014.000
10345.000,10037.000,10026.000
10346.000,10126.000,10010.000
10280.000,10055.000,10062.000
10301.000,10007.000,9949.000
10240.000,10139.000,9907.000
10237.000,9993.000,9928.000
10165.000,9919.000,9863.000
10162.000,9917.000,9874.000
10188.000,9927.000,9850.000
10167.000,10033.000,9789.000
10287.000,9919.000,9724.000
10048.000,9989.000,9826.000
10106.000,9863.000,9764.000
10067.000,9857.000,9768.000
10161.000,9818.000,9809.000
10156.000,9861.000,9830.000
10097.000,9851.000,9747.000
10076.000,9865.000,9799.000
10110.000,9910.000,9807.000
10053.000,9815.000,9687.000
9983.000,9747.000,9738.000
10141.000,9773.000,9756.000
10107.000,9944.000,9753.000
9904.000,9717.000,9595.000
9999.000,9686.000,9618.000
9884.000,9696.000,9648.000
10028.000,9770.000,9671.000
10022.000,9688.000,9579.000
9947.000,9833.000,9565.000
9961.000,9635.000,9631.000
9852.000,9736.000,9648.000
9954.000,9754.000,9574.000
10033.000,9669.000,9512.000
10005.000,9624.000,9582.000
9921.000,9698.000,9684.000
9929.000,9722.000,9539.000
10002.000,9664.000,9600.000
9865.000,9749.000,9644.000
9897.000,9635.000,9583.000
10023.000,9750.000,9606.000
9852.000,9760.000,9638.000
9989.000,9772.000,9726.000
9966.000,9706.000,9641.000
10025.000,9752.000,9753.000
9945.000,9851.000,9702.000
10048.000,9840.000,9706.000
10112.000,9796.000,9654.000
10077.000,9818.000,9671.000
10024.000,9829.000,9703.000
9943.000,9701.000,9720.000
10091.000,9796.000,9718.000
9927.000,9820.000,9728.000
10009.000,9795.000,9737.000
10021.000,9926.000,9566.000
10080.000,9760.000,9712.000
10036.000,9867.000,9678.000
10063.000,9843.000,9723.000
10064.000,9903.000,9779.000
10072.000,9785.000,9764.000
10078.000,9938.000,9711.000
10090.000,9875.000,9830.000
10112.000,9802.000,9747.000
10039.000,9821.000,9797.000
10078.000,9906.000,9796.000
9968.000,9826.000,9705.000
10033.000,9821.000,9688.000
10123.000,9867.000,9801.000
10084.000,9723.000,9635.000
10012.000,9740.000,9678.000
10005.000,9753.000,9616.000
10006.000,9785.000,9590.000
10029.000,9718.000,9724.000
10091.000,9824.000,9707.000
9987.000,9926.000,9681.000
10139.000,9857.000,9747.000
10198.000,10028.000,9726.000
10176.000,9866.000,9707.000
10190.000,9918.000,9676.000
10144.000,9913.000,9741.000
10167.000,9936.000,9802.000
10130.000,9947.000,9748.000
10120.000,9829.000,9769.000
10112.000,9888.000,9669.000
10034.000,9839.000,9778.000
10178.000,9852.000,9648.000
9974.000,9741.000,9565.000
9964.000,9710.000,9647.000
10072.000,9773.000,9609.000
9909.000,9775.000,9487.000
9859.000,9846.000,9579.000
9907.000,9765.000,9466.000
9934.000,9671.000,9608.000
9893.000,9767.000,9601.000
9834.000,9661.000,9500.000
9965.000,9651.000,9555.000
9954.000,9722.000,9562.000
9928.000,9628.000,9492.000
9851.000,9684.000,9512.000
9920.000,9631.000,9697.000
9959.000,9606.000,9532.000
9875.000,9636.000,9564.000
9896.000,9652.000,9478.000
9885.000,9635.000,9561.000
9852.000,9573.000,9545.000
9880.000,9595.000,9543.000
9882.000,9582.000,9523.000
9860.000,9599.000,9496.000
9835.000,9614.000,9494.000
9841.000,9563.000,9472.000
9794.000,9669.000,9523.000
9803.000,9506.000,9400.000
9837.000,9612.000,9487.000
9883.000,9737.000,9519.000
9845.000,9573.000,9577.000
9941.000,9607.000,9466.000
9985.000,9711.000,9537.000
9806.000,9707.000,9502.000
9843.000,9587.000,9543.000
9833.000,9619.000,9507.000
9835.000,9602.000,9341.000
9847.000,9514.000,9455.000
9818.000,9610.000,9541.000
9924.000,9569.000,9497.000
9715.000,9579.000,9484.000
9769.000,9566.000,9474.000
9803.000,9615.000,9461.000
9794.000,9579.000,9534.000
9845.000,9614.000,9383.000
9900.000,9553.000,9491.000
9854.000,9601.000,9525.000
9840.000,9645.000,9508.000
9800.000,9683.000,9526.000
9829.000,9682.000,9610.000
9839.000,9681.000,9518.000
9748.000,9608.000,9489.000
9939.000,9640.000,9523.000
9836.000,9642.000,9492.000
9920.000,9691.000,9609.000
9916.000,9760.000,9505.000
9855.000,9645.000,9485.000
9961.000,9627.000,9549.000
9790.000,9582.000,9545.000
9936.000,9637.000,9575.000
9776.000,9562.000,9551.000
9825.000,9632.000,9427.000
9838.000,9608.000,9510.000
9865.000,9602.000,9459.000
9850.000,9539.000,9529.000
9883.000,9582.000,9542.000
9898.000,9649.000,9497.000
9852.000,9657.000,9555.000
9832.000,9626.000,9540.000
9926.000,9628.000,9486.000
9823.000,9640.000,9437.000
9940.000,9562.000,9523.000
9748.000,9484.000,9474.000
9766.000,9594.000,9461.000
9779.000,9607.000,9432.000
9797.000,9488.000,9483.000
9780.000,9613.000,9437.000
9822.000,9600.000,9455.000
9739.000,9561.000,9374.000
9802.000,9585.000,9382.000
9833.000,9578.000,9410.000
9812.000,9564.000,9467.000
9843.000,9693.000,9412.000
9806.000,9485.000,9557.000
9774.000,9535.000,9476.000
9826.000,9636.000,9379.000
9894.000,9509.000,9565.000
9802.000,9541.000,9486.000
9846.000,9594.000,9373.000
9741.000,9539.000,9407.000
9858.000,9577.000,9498.000
9837.000,9639.000,9524.000
9835.000,9540.000,9530.000
9821.000,9544.000,9373.000
9870.000,9521.000,9470.000
9897.000,9543.000,9526.000
9783.000,9563.000,9456.000
9863.000,9496.000,9505.000
