Focus Mode,Read Mode,Exposure Time (sec),Number of Frames,Start Y,End Y,Date,Time,Position (microns)
Single Acquisition,Spectrum,20.000000,3,105,125,2/11/2021,5:41:17 PM,-3494.010000,0.000000,221.990000,

1270.000,1276.000,1268.000
1266.000,1269.000,1260.000
1268.000,1266.000,1272.000
1272.000,1269.000,1268.000
1267.000,1271.000,1268.000
1272.000,1268.000,1272.000
1268.000,1271.000,1268.000
1264.000,1279.000,1267.000
1277.000,1269.000,1268.000
1269.000,1265.000,1274.000
1260.000,1270.000,1274.000
1275.000,1267.000,1268.000
1270.000,1269.000,1269.000
1267.000,1268.000,1271.000
1267.000,1272.000,1272.000
1282.000,1279.000,1271.000
1267.000,1281.000,1278.000
1275.000,1275.000,1270.000
1281.000,1277.000,1272.000
1276.000,1283.000,1279.000
1285.000,1286.000,1284.000
1285.000,1274.000,1283.000
1290.000,1281.000,1290.000
1283.000,1284.000,1289.000
1283.000,1293.000,1288.000
1295.000,1283.000,1293.000
1290.000,1296.000,1295.000
1296.000,1299.000,1292.000
1297.000,1298.000,1303.000
1301.000,1299.000,1299.000
1299.000,1295.000,1297.000
1307.000,1302.000,1306.000
1312.000,1324.000,1308.000
1314.000,1311.000,1304.000
1313.000,1317.000,1321.000
1329.000,1310.000,1318.000
1325.000,1315.000,1333.000
1321.000,1326.000,1328.000
1318.000,1327.000,1325.000
1316.000,1330.000,1331.000
1328.000,1324.000,1335.000
1339.000,1334.000,1343.000
1342.000,1339.000,1351.000
1342.000,1351.000,1358.000
1366.000,1347.000,1344.000
1368.000,1345.000,1341.000
1356.000,1364.000,1359.000
1364.000,1369.000,1357.000
1368.000,1364.000,1375.000
1365.000,1366.000,1385.000
1382.000,1383.000,1382.000
1389.000,1400.000,1384.000
1400.000,1395.000,1404.000
1398.000,1413.000,1413.000
1409.000,1412.000,1420.000
1420.000,1411.000,1417.000
1431.000,1425.000,1431.000
1429.000,1427.000,1442.000
1431.000,1431.000,1435.000
1436.000,1427.000,1447.000
1463.000,1435.000,1463.000
1429.000,1454.000,1462.000
1436.000,1447.000,1448.000
1454.000,1445.000,1444.000
1462.000,1468.000,1437.000
1463.000,1447.000,1459.000
1466.000,1451.000,1464.000
1481.000,1468.000,1463.000
1496.000,1494.000,1498.000
1487.000,1504.000,1522.000
1516.000,1513.000,1534.000
1520.000,1531.000,1537.000
1544.000,1553.000,1554.000
1556.000,1573.000,1575.000
1583.000,1598.000,1600.000
1590.000,1629.000,1630.000
1614.000,1640.000,1641.000
1636.000,1641.000,1652.000
1645.000,1654.000,1669.000
1646.000,1655.000,1680.000
1684.000,1668.000,1679.000
1695.000,1704.000,1715.000
1701.000,1718.000,1712.000
1730.000,1743.000,1738.000
1751.000,1759.000,1751.000
1765.000,1763.000,1754.000
1776.000,1791.000,1777.000
1770.000,1820.000,1816.000
1800.000,1834.000,1799.000
1837.000,1841.000,1804.000
1844.000,1835.000,1835.000
1842.000,1877.000,1872.000
1882.000,1878.000,1931.000
1925.000,1957.000,1955.000
1970.000,1975.000,1970.000
2006.000,2024.000,2023.000
2099.000,2121.000,2076.000
2142.000,2188.000,2193.000
2243.000,2292.000,2305.000
2373.000,2401.000,2405.000
2527.000,2546.000,2524.000
2647.000,2701.000,2648.000
2765.000,2846.000,2821.000
2883.000,2969.000,2946.000
3024.000,3121.000,3068.000
3056.000,3214.000,3106.000
3117.000,3296.000,3261.000
3247.000,3306.000,3232.000
3235.000,3312.000,3288.000
3245.000,3314.000,3251.000
3210.000,3266.000,3218.000
3170.000,3231.000,3159.000
3079.000,3171.000,3115.000
3130.000,3166.000,3106.000
3039.000,3141.000,3123.000
3070.000,3184.000,3113.000
3191.000,3278.000,3286.000
3244.000,3375.000,3402.000
3501.000,3538.000,3554.000
3760.000,3892.000,3885.000
4312.000,4456.000,4546.000
5326.000,5434.000,5577.000
7786.000,7903.000,8223.000
14843.000,14886.000,15863.000
60958.000,63670.000,61805.000
61982.000,61836.000,62255.000
62232.000,62192.000,62170.000
62124.000,62103.000,62096.000
62128.000,62123.000,62112.000
62119.000,62118.000,62107.000
62087.000,62088.000,62085.000
62086.000,62086.000,62083.000
62091.000,62089.000,62088.000
62073.000,62078.000,62081.000
62081.000,62075.000,62078.000
62082.000,62076.000,62077.000
62073.000,62077.000,62078.000
62066.000,62069.000,62077.000
62073.000,62071.000,62078.000
62072.000,62072.000,62072.000
62072.000,62073.000,62072.000
62071.000,62068.000,62071.000
62064.000,62074.000,62073.000
62067.000,62070.000,62069.000
62068.000,62072.000,62069.000
62066.000,62069.000,62065.000
62069.000,62070.000,62067.000
62068.000,62062.000,62067.000
62069.000,62072.000,62066.000
62069.000,62065.000,62065.000
62069.000,62071.000,62065.000
62067.000,62070.000,62062.000
62064.000,62070.000,62065.000
62064.000,62065.000,62067.000
62069.000,62068.000,62064.000
62065.000,62067.000,62066.000
62068.000,62069.000,62064.000
62065.000,62068.000,62069.000
62063.000,62067.000,62065.000
62068.000,62064.000,62066.000
62062.000,62067.000,62070.000
62065.000,62068.000,62066.000
62065.000,62062.000,62066.000
62069.000,62064.000,62074.000
62069.000,62070.000,62070.000
62068.000,62067.000,62067.000
62070.000,62069.000,62072.000
62070.000,62067.000,62069.000
62067.000,62068.000,62066.000
62069.000,62071.000,62066.000
62070.000,62064.000,62066.000
62070.000,62068.000,62072.000
62069.000,62072.000,62069.000
62072.000,62071.000,62068.000
62091.000,62075.000,62070.000
62103.000,62093.000,62075.000
15503.000,63763.000,62093.000
1580.000,1677.000,62077.000
1540.000,1561.000,1715.000
1546.000,1533.000,1552.000
1529.000,1539.000,1540.000
1506.000,1525.000,1531.000
1498.000,1513.000,1521.000
1508.000,1497.000,1510.000
1473.000,1480.000,1482.000
1472.000,1484.000,1486.000
1461.000,1463.000,1464.000
1441.000,1466.000,1476.000
1451.000,1447.000,1450.000
1436.000,1445.000,1444.000
1437.000,1436.000,1447.000
1446.000,1430.000,1435.000
1417.000,1427.000,1458.000
1438.000,1413.000,1450.000
1417.000,1413.000,1417.000
1399.000,1413.000,1411.000
1417.000,1418.000,1403.000
1404.000,1391.000,1417.000
1404.000,1407.000,1398.000
1402.000,1391.000,1390.000
1394.000,1406.000,1395.000
1393.000,1387.000,1387.000
1391.000,1393.000,1387.000
1376.000,1390.000,1400.000
1380.000,1392.000,1389.000
1375.000,1377.000,1392.000
1368.000,1387.000,1382.000
1379.000,1374.000,1380.000
1367.000,1370.000,1377.000
1367.000,1372.000,1368.000
1363.000,1368.000,1371.000
1355.000,1376.000,1382.000
1362.000,1369.000,1363.000
1352.000,1369.000,1349.000
1365.000,1360.000,1357.000
1360.000,1366.000,1353.000
1351.000,1341.000,1357.000
1351.000,1344.000,1354.000
1341.000,1354.000,1350.000
1348.000,1347.000,1344.000
1340.000,1343.000,1352.000
1344.000,1347.000,1348.000
1336.000,1332.000,1355.000
1327.000,1342.000,1340.000
1325.000,1340.000,1345.000
1328.000,1336.000,1338.000
1329.000,1338.000,1322.000
1336.000,1329.000,1326.000
1332.000,1339.000,1331.000
1335.000,1324.000,1327.000
1330.000,1330.000,1335.000
1336.000,1321.000,1331.000
1330.000,1325.000,1318.000
1325.000,1328.000,1323.000
1321.000,1340.000,1324.000
1321.000,1333.000,1327.000
1327.000,1319.000,1323.000
1319.000,1323.000,1321.000
1326.000,1316.000,1325.000
1316.000,1308.000,1314.000
1308.000,1318.000,1318.000
1313.000,1315.000,1317.000
1312.000,1312.000,1318.000
1313.000,1309.000,1316.000
1303.000,1313.000,1302.000
1309.000,1309.000,1301.000
1304.000,1308.000,1313.000
1302.000,1308.000,1312.000
1298.000,1300.000,1313.000
1311.000,1307.000,1303.000
1295.000,1301.000,1306.000
1305.000,1307.000,1307.000
1301.000,1294.000,1305.000
1291.000,1312.000,1308.000
1311.000,1305.000,1306.000
1299.000,1293.000,1299.000
1300.000,1310.000,1297.000
1298.000,1290.000,1303.000
1295.000,1298.000,1297.000
1303.000,1299.000,1301.000
1300.000,1296.000,1303.000
1297.000,1303.000,1300.000
1296.000,1292.000,1292.000
1290.000,1301.000,1295.000
1297.000,1291.000,1293.000
1290.000,1297.000,1288.000
1293.000,1296.000,1296.000
1291.000,1287.000,1299.000
1292.000,1291.000,1288.000
1290.000,1299.000,1294.000
1287.000,1288.000,1298.000
1284.000,1291.000,1294.000
1283.000,1284.000,1289.000
1287.000,1298.000,1289.000
1294.000,1285.000,1295.000
1288.000,1291.000,1290.000
1288.000,1281.000,1287.000
1298.000,1286.000,1287.000
1282.000,1292.000,1291.000
1303.000,1303.000,1297.000
1285.000,1294.000,1295.000
1293.000,1283.000,1292.000
1293.000,1298.000,1294.000
1290.000,1289.000,1301.000
1284.000,1296.000,1294.000
1298.000,1294.000,1301.000
1307.000,1298.000,1299.000
1309.000,1301.000,1304.000
1303.000,1299.000,1309.000
1306.000,1317.000,1314.000
1312.000,1307.000,1316.000
1321.000,1320.000,1311.000
1320.000,1322.000,1319.000
1329.000,1316.000,1331.000
1335.000,1331.000,1335.000
1340.000,1345.000,1337.000
1351.000,1349.000,1367.000
1371.000,1383.000,1362.000
1370.000,1381.000,1391.000
1396.000,1401.000,1392.000
1422.000,1416.000,1414.000
1434.000,1454.000,1456.000
1468.000,1483.000,1481.000
1501.000,1500.000,1494.000
1544.000,1559.000,1542.000
1616.000,1608.000,1580.000
1654.000,1677.000,1632.000
1714.000,1703.000,1709.000
1778.000,1784.000,1813.000
1874.000,1903.000,1890.000
1969.000,1996.000,1961.000
2125.000,2137.000,2116.000
2250.000,2264.000,2247.000
2427.000,2410.000,2416.000
2629.000,2592.000,2607.000
2763.000,2790.000,2766.000
3000.000,3023.000,3009.000
3242.000,3257.000,3229.000
3517.000,3456.000,3495.000
3725.000,3715.000,3701.000
3958.000,3955.000,4019.000
4230.000,4252.000,4231.000
4456.000,4470.000,4463.000
4688.000,4674.000,4683.000
4863.000,4894.000,4889.000
4943.000,5039.000,5079.000
5134.000,5085.000,5110.000
5288.000,5217.000,5249.000
5389.000,5348.000,5370.000
5355.000,5457.000,5409.000
5404.000,5404.000,5418.000
5491.000,5524.000,5521.000
5577.000,5535.000,5446.000
5528.000,5436.000,5531.000
5509.000,5517.000,5552.000
5486.000,5540.000,5459.000
5489.000,5524.000,5489.000
5487.000,5553.000,5475.000
5542.000,5454.000,5464.000
5425.000,5406.000,5478.000
5486.000,5531.000,5483.000
5451.000,5432.000,5440.000
5418.000,5430.000,5435.000
5428.000,5494.000,5408.000
5516.000,5436.000,5441.000
5435.000,5410.000,5456.000
5479.000,5458.000,5484.000
5504.000,5480.000,5473.000
5451.000,5459.000,5461.000
5474.000,5499.000,5494.000
5434.000,5453.000,5514.000
5452.000,5415.000,5392.000
5392.000,5405.000,5437.000
5503.000,5464.000,5434.000
5452.000,5445.000,5460.000
5462.000,5408.000,5421.000
5460.000,5512.000,5417.000
5467.000,5441.000,5411.000
5504.000,5386.000,5451.000
5424.000,5479.000,5405.000
5425.000,5443.000,5467.000
5475.000,5467.000,5415.000
5446.000,5430.000,5457.000
5501.000,5396.000,5401.000
5490.000,5470.000,5463.000
5443.000,5451.000,5450.000
5490.000,5417.000,5434.000
5398.000,5442.000,5455.000
5463.000,5444.000,5463.000
5434.000,5446.000,5476.000
5473.000,5549.000,5506.000
5448.000,5512.000,5481.000
5418.000,5600.000,5502.000
5498.000,5513.000,5457.000
5532.000,5563.000,5542.000
5525.000,5543.000,5482.000
5532.000,5580.000,5599.000
5559.000,5583.000,5571.000
5620.000,5576.000,5532.000
5595.000,5563.000,5585.000
5630.000,5606.000,5665.000
5631.000,5624.000,5608.000
5600.000,5631.000,5546.000
5633.000,5598.000,5659.000
5685.000,5601.000,5606.000
5622.000,5651.000,5662.000
5671.000,5688.000,5649.000
5627.000,5695.000,5680.000
5673.000,5703.000,5700.000
5629.000,5634.000,5729.000
5654.000,5748.000,5771.000
5665.000,5704.000,5678.000
5665.000,5666.000,5750.000
5716.000,5672.000,5710.000
5719.000,5674.000,5746.000
5805.000,5779.000,5718.000
5774.000,5778.000,5700.000
5786.000,5742.000,5781.000
5758.000,5738.000,5819.000
5769.000,5787.000,5768.000
5801.000,5773.000,5797.000
5818.000,5764.000,5767.000
5767.000,5750.000,5771.000
5809.000,5794.000,5854.000
5838.000,5815.000,5796.000
5831.000,5776.000,5806.000
5833.000,5846.000,5873.000
5964.000,5867.000,5866.000
5945.000,5932.000,5903.000
5858.000,5916.000,5891.000
5947.000,5951.000,5856.000
5909.000,5889.000,5871.000
5993.000,5923.000,5963.000
6006.000,5917.000,5950.000
5944.000,6011.000,5972.000
5939.000,6000.000,5985.000
5906.000,6023.000,5926.000
5938.000,5999.000,5939.000
5972.000,5889.000,5905.000
5871.000,5915.000,5933.000
5969.000,5985.000,5967.000
5982.000,6050.000,5981.000
6002.000,5955.000,5948.000
5976.000,6083.000,5954.000
5987.000,6052.000,6056.000
6007.000,6003.000,5980.000
5964.000,5912.000,6029.000
6017.000,6043.000,6056.000
6058.000,6014.000,6004.000
6052.000,5984.000,6058.000
5998.000,6059.000,6039.000
6121.000,6067.000,6059.000
6074.000,6100.000,6032.000
6144.000,6046.000,6055.000
6206.000,6146.000,6114.000
6084.000,6137.000,6168.000
6153.000,6174.000,6135.000
6165.000,6213.000,6189.000
6116.000,6267.000,6227.000
6183.000,6060.000,6177.000
6249.000,6268.000,6198.000
6243.000,6320.000,6280.000
6338.000,6341.000,6365.000
6392.000,6316.000,6352.000
6414.000,6443.000,6430.000
6518.000,6414.000,6461.000
6513.000,6493.000,6469.000
6560.000,6578.000,6633.000
6591.000,6694.000,6606.000
6771.000,6722.000,6776.000
6841.000,6844.000,6817.000
6948.000,6855.000,6910.000
6862.000,6906.000,6923.000
7064.000,6959.000,6951.000
7033.000,7123.000,7039.000
7019.000,7078.000,7148.000
7203.000,7172.000,7133.000
7036.000,7116.000,7131.000
7172.000,7156.000,7169.000
7136.000,7182.000,7157.000
7047.000,7019.000,7081.000
7166.000,7060.000,7041.000
6974.000,7041.000,7124.000
6979.000,6932.000,7018.000
6893.000,6906.000,6955.000
6843.000,6867.000,6944.000
6865.000,6851.000,6736.000
6747.000,6711.000,6721.000
6602.000,6711.000,6652.000
6637.000,6559.000,6647.000
6494.000,6624.000,6543.000
6595.000,6620.000,6534.000
6499.000,6464.000,6487.000
6468.000,6430.000,6526.000
6374.000,6406.000,6362.000
6425.000,6392.000,6338.000
6339.000,6365.000,6333.000
6380.000,6324.000,6303.000
6276.000,6342.000,6300.000
6296.000,6307.000,6308.000
6223.000,6250.000,6286.000
6225.000,6191.000,6173.000
6216.000,6152.000,6216.000
6159.000,6239.000,6199.000
6171.000,6177.000,6174.000
6235.000,6141.000,6184.000
6245.000,6198.000,6167.000
6084.000,6096.000,6089.000
6169.000,6118.000,6118.000
6145.000,6120.000,6098.000
6123.000,6167.000,6159.000
6110.000,6197.000,6124.000
6168.000,6161.000,6096.000
6168.000,6146.000,6129.000
6161.000,6193.000,6113.000
6128.000,6093.000,6086.000
6259.000,6208.000,6239.000
6199.000,6177.000,6193.000
6162.000,6123.000,6215.000
6302.000,6138.000,6112.000
6214.000,6107.000,6167.000
6160.000,6178.000,6237.000
6208.000,6155.000,6151.000
6217.000,6205.000,6158.000
6190.000,6224.000,6129.000
6148.000,6148.000,6131.000
6214.000,6251.000,6162.000
6166.000,6106.000,6145.000
6156.000,6085.000,6094.000
6057.000,6163.000,6145.000
6024.000,6098.000,6068.000
6041.000,6054.000,6110.000
6032.000,6004.000,6045.000
5964.000,5968.000,6072.000
6012.000,5975.000,5952.000
5950.000,5955.000,5954.000
5954.000,5906.000,5927.000
5894.000,5924.000,5924.000
5850.000,5900.000,5844.000
5865.000,5750.000,5943.000
5867.000,5840.000,5790.000
5880.000,5919.000,5862.000
5812.000,5803.000,5868.000
5872.000,5822.000,5839.000
5792.000,5791.000,5885.000
5730.000,5823.000,5780.000
5839.000,5754.000,5765.000
5850.000,5839.000,5739.000
5753.000,5839.000,5743.000
5795.000,5749.000,5797.000
5777.000,5756.000,5776.000
5737.000,5794.000,5742.000
5768.000,5790.000,5841.000
5719.000,5762.000,5761.000
5689.000,5808.000,5743.000
5671.000,5689.000,5681.000
5727.000,5681.000,5697.000
5642.000,5698.000,5678.000
5720.000,5712.000,5685.000
5677.000,5703.000,5728.000
5743.000,5755.000,5687.000
5647.000,5693.000,5693.000
5709.000,5633.000,5686.000
5698.000,5671.000,5729.000
5640.000,5699.000,5712.000
5667.000,5754.000,5655.000
5742.000,5690.000,5653.000
5669.000,5687.000,5724.000
5667.000,5643.000,5667.000
5649.000,5708.000,5662.000
5655.000,5716.000,5692.000
5707.000,5671.000,5706.000
5665.000,5644.000,5672.000
5701.000,5703.000,5648.000
5753.000,5618.000,5713.000
5748.000,5690.000,5672.000
5692.000,5804.000,5710.000
5685.000,5720.000,5640.000
5682.000,5732.000,5631.000
5768.000,5730.000,5635.000
5717.000,5707.000,5739.000
5680.000,5704.000,5705.000
5696.000,5713.000,5683.000
5731.000,5753.000,5704.000
5688.000,5679.000,5713.000
5701.000,5660.000,5777.000
5734.000,5734.000,5683.000
5693.000,5668.000,5703.000
5790.000,5753.000,5759.000
5724.000,5740.000,5678.000
5704.000,5776.000,5776.000
5753.000,5754.000,5731.000
5786.000,5686.000,5767.000
5763.000,5769.000,5742.000
5724.000,5811.000,5776.000
5728.000,5736.000,5642.000
5697.000,5780.000,5728.000
5706.000,5698.000,5719.000
5780.000,5715.000,5771.000
5724.000,5787.000,5776.000
5664.000,5685.000,5694.000
5723.000,5706.000,5729.000
5702.000,5698.000,5654.000
5770.000,5787.000,5744.000
5811.000,5707.000,5658.000
5784.000,5827.000,5755.000
5801.000,5732.000,5830.000
5757.000,5783.000,5723.000
5759.000,5790.000,5758.000
5728.000,5750.000,5827.000
5821.000,5768.000,5777.000
5757.000,5788.000,5790.000
5754.000,5703.000,5753.000
5782.000,5775.000,5774.000
5728.000,5696.000,5780.000
5751.000,5713.000,5777.000
5796.000,5703.000,5696.000
5635.000,5721.000,5679.000
5715.000,5634.000,5773.000
5730.000,5676.000,5716.000
5704.000,5702.000,5769.000
5726.000,5663.000,5752.000
5730.000,5679.000,5736.000
5671.000,5680.000,5671.000
5612.000,5623.000,5662.000
5738.000,5593.000,5707.000
5759.000,5687.000,5672.000
5590.000,5631.000,5661.000
5645.000,5637.000,5620.000
5691.000,5715.000,5608.000
5670.000,5651.000,5647.000
5656.000,5623.000,5634.000
5598.000,5661.000,5641.000
5649.000,5653.000,5642.000
5614.000,5591.000,5574.000
5511.000,5620.000,5599.000
5601.000,5615.000,5614.000
5648.000,5649.000,5700.000
5603.000,5641.000,5684.000
5638.000,5706.000,5596.000
5661.000,5585.000,5648.000
5626.000,5606.000,5620.000
5691.000,5627.000,5627.000
5607.000,5570.000,5604.000
5593.000,5580.000,5671.000
5641.000,5645.000,5586.000
5587.000,5665.000,5653.000
5626.000,5658.000,5648.000
5622.000,5621.000,5575.000
5615.000,5515.000,5550.000
5615.000,5627.000,5586.000
5569.000,5588.000,5558.000
5639.000,5602.000,5601.000
5563.000,5661.000,5671.000
5620.000,5623.000,5580.000
5646.000,5625.000,5635.000
5544.000,5643.000,5583.000
5612.000,5521.000,5554.000
5612.000,5595.000,5635.000
5560.000,5603.000,5623.000
5637.000,5632.000,5609.000
5590.000,5627.000,5658.000
5647.000,5696.000,5628.000
5654.000,5636.000,5646.000
5677.000,5618.000,5717.000
5658.000,5648.000,5688.000
5679.000,5601.000,5622.000
5675.000,5587.000,5671.000
5635.000,5618.000,5627.000
5585.000,5652.000,5655.000
5632.000,5589.000,5653.000
5619.000,5689.000,5660.000
5626.000,5532.000,5659.000
5616.000,5650.000,5590.000
5619.000,5621.000,5682.000
5613.000,5532.000,5549.000
5655.000,5659.000,5579.000
5628.000,5635.000,5652.000
5654.000,5630.000,5615.000
5684.000,5588.000,5610.000
5648.000,5641.000,5670.000
5649.000,5602.000,5626.000
5671.000,5683.000,5662.000
5658.000,5654.000,5586.000
5616.000,5638.000,5677.000
5642.000,5600.000,5583.000
5613.000,5656.000,5655.000
5610.000,5652.000,5672.000
5595.000,5591.000,5666.000
5670.000,5611.000,5576.000
5609.000,5593.000,5546.000
5655.000,5531.000,5610.000
5508.000,5597.000,5596.000
5634.000,5608.000,5628.000
5654.000,5634.000,5567.000
5639.000,5665.000,5574.000
5606.000,5667.000,5695.000
5582.000,5676.000,5643.000
5610.000,5724.000,5650.000
5703.000,5605.000,5664.000
5611.000,5597.000,5674.000
5721.000,5719.000,5664.000
5625.000,5592.000,5662.000
5608.000,5577.000,5610.000
5626.000,5625.000,5680.000
5609.000,5642.000,5637.000
5688.000,5662.000,5714.000
5633.000,5651.000,5704.000
5646.000,5702.000,5610.000
5651.000,5644.000,5669.000
5593.000,5660.000,5649.000
5664.000,5651.000,5629.000
5658.000,5669.000,5675.000
5599.000,5641.000,5618.000
5702.000,5590.000,5637.000
5653.000,5647.000,5636.000
5637.000,5632.000,5618.000
5596.000,5626.000,5611.000
5715.000,5604.000,5622.000
5617.000,5674.000,5674.000
5628.000,5653.000,5639.000
