Focus Mode,Read Mode,Exposure Time (sec),Number of Frames,Start Y,End Y,Date,Time,Position (microns)
Single Acquisition,Spectrum,20.000000,3,105,125,2/11/2021,5:01:33 PM,-3494.980000,0.000000,225.410000,

1262.000,1254.000,1255.000
1258.000,1258.000,1261.000
1255.000,1252.000,1265.000
1262.000,1260.000,1258.000
1265.000,1258.000,1257.000
1259.000,1254.000,1259.000
1268.000,1265.000,1267.000
1256.000,1265.000,1266.000
1265.000,1262.000,1264.000
1260.000,1262.000,1261.000
1265.000,1267.000,1259.000
1269.000,1262.000,1267.000
1265.000,1265.000,1267.000
1255.000,1268.000,1269.000
1266.000,1271.000,1268.000
1259.000,1269.000,1274.000
1261.000,1267.000,1272.000
1270.000,1267.000,1269.000
1269.000,1275.000,1263.000
1267.000,1271.000,1266.000
1274.000,1272.000,1275.000
1280.000,1272.000,1274.000
1276.000,1277.000,1264.000
1271.000,1280.000,1280.000
1285.000,1278.000,1284.000
1282.000,1287.000,1282.000
1276.000,1289.000,1281.000
1274.000,1288.000,1280.000
1283.000,1286.000,1285.000
1277.000,1272.000,1289.000
1290.000,1291.000,1291.000
1300.000,1291.000,1287.000
1284.000,1280.000,1304.000
1304.000,1301.000,1299.000
1301.000,1303.000,1301.000
1296.000,1302.000,1298.000
1303.000,1311.000,1300.000
1306.000,1305.000,1300.000
1298.000,1309.000,1308.000
1306.000,1311.000,1318.000
1312.000,1314.000,1309.000
1307.000,1321.000,1319.000
1313.000,1323.000,1321.000
1321.000,1310.000,1318.000
1323.000,1332.000,1339.000
1341.000,1329.000,1334.000
1330.000,1335.000,1327.000
1337.000,1347.000,1340.000
1337.000,1345.000,1339.000
1340.000,1341.000,1342.000
1356.000,1352.000,1352.000
1359.000,1354.000,1358.000
1364.000,1371.000,1366.000
1372.000,1359.000,1368.000
1370.000,1380.000,1382.000
1377.000,1371.000,1387.000
1393.000,1383.000,1383.000
1392.000,1396.000,1391.000
1400.000,1386.000,1401.000
1410.000,1395.000,1394.000
1394.000,1395.000,1399.000
1389.000,1418.000,1400.000
1404.000,1407.000,1403.000
1404.000,1410.000,1403.000
1406.000,1414.000,1416.000
1412.000,1417.000,1409.000
1424.000,1408.000,1418.000
1427.000,1419.000,1443.000
1443.000,1433.000,1452.000
1443.000,1448.000,1443.000
1461.000,1449.000,1458.000
1464.000,1468.000,1471.000
1479.000,1466.000,1489.000
1512.000,1500.000,1503.000
1515.000,1518.000,1523.000
1527.000,1534.000,1516.000
1534.000,1548.000,1543.000
1548.000,1569.000,1557.000
1563.000,1562.000,1573.000
1569.000,1575.000,1573.000
1582.000,1568.000,1591.000
1629.000,1606.000,1600.000
1588.000,1606.000,1621.000
1609.000,1622.000,1603.000
1625.000,1606.000,1631.000
1626.000,1621.000,1634.000
1642.000,1653.000,1627.000
1652.000,1654.000,1635.000
1644.000,1656.000,1672.000
1684.000,1667.000,1680.000
1681.000,1687.000,1693.000
1716.000,1697.000,1729.000
1702.000,1707.000,1717.000
1740.000,1739.000,1746.000
1759.000,1747.000,1769.000
1771.000,1779.000,1794.000
1831.000,1838.000,1830.000
1852.000,1873.000,1868.000
1881.000,1944.000,1932.000
1987.000,1971.000,1978.000
2067.000,2031.000,2051.000
2155.000,2106.000,2120.000
2180.000,2193.000,2181.000
2251.000,2267.000,2252.000
2334.000,2307.000,2340.000
2356.000,2357.000,2374.000
2360.000,2410.000,2406.000
2451.000,2439.000,2446.000
2460.000,2454.000,2441.000
2433.000,2477.000,2494.000
2476.000,2501.000,2447.000
2505.000,2523.000,2495.000
2520.000,2520.000,2553.000
2575.000,2568.000,2543.000
2612.000,2592.000,2613.000
2677.000,2656.000,2674.000
2753.000,2749.000,2759.000
2885.000,2867.000,2887.000
3015.000,3017.000,3052.000
3359.000,3264.000,3331.000
3751.000,3701.000,3703.000
4495.000,4421.000,4508.000
6050.000,5927.000,6052.000
10371.000,10017.000,10498.000
23755.000,22626.000,24277.000
61715.000,61678.000,61708.000
62200.000,62195.000,62198.000
62110.000,62115.000,62109.000
62058.000,62052.000,62055.000
62062.000,62061.000,62064.000
62053.000,62054.000,62051.000
62032.000,62033.000,62040.000
62028.000,62031.000,62032.000
62035.000,62032.000,62037.000
62026.000,62029.000,62027.000
62023.000,62021.000,62023.000
62023.000,62028.000,62027.000
62024.000,62020.000,62026.000
62017.000,62024.000,62027.000
62022.000,62021.000,62026.000
62020.000,62021.000,62020.000
62018.000,62017.000,62026.000
62015.000,62021.000,62020.000
62017.000,62013.000,62022.000
62020.000,62017.000,62019.000
62015.000,62016.000,62023.000
62016.000,62016.000,62024.000
62023.000,62016.000,62021.000
62014.000,62017.000,62020.000
62016.000,62017.000,62020.000
62020.000,62022.000,62022.000
62020.000,62016.000,62023.000
62021.000,62022.000,62023.000
62017.000,62016.000,62019.000
62010.000,62018.000,62023.000
62016.000,62018.000,62021.000
62015.000,62018.000,62022.000
62011.000,62016.000,62020.000
62020.000,62018.000,62016.000
62013.000,62016.000,62016.000
62017.000,62019.000,62021.000
62019.000,62019.000,62019.000
62013.000,62015.000,62019.000
62015.000,62014.000,62024.000
62017.000,62019.000,62025.000
62016.000,62025.000,62017.000
62019.000,62016.000,62018.000
62018.000,62015.000,62014.000
62016.000,62016.000,62019.000
62018.000,62020.000,62023.000
62015.000,62015.000,62019.000
62015.000,62015.000,62021.000
62017.000,62023.000,62023.000
62019.000,62019.000,62029.000
62019.000,62022.000,62035.000
62031.000,62048.000,62054.000
62051.000,62043.000,50067.000
58489.000,1775.000,1650.000
1654.000,1579.000,1572.000
1556.000,1546.000,1526.000
1538.000,1536.000,1524.000
1515.000,1523.000,1509.000
1520.000,1514.000,1509.000
1500.000,1501.000,1510.000
1499.000,1508.000,1487.000
1487.000,1462.000,1480.000
1467.000,1468.000,1483.000
1446.000,1452.000,1458.000
1461.000,1460.000,1451.000
1441.000,1445.000,1435.000
1451.000,1432.000,1425.000
1431.000,1428.000,1439.000
1435.000,1439.000,1429.000
1422.000,1436.000,1433.000
1410.000,1434.000,1404.000
1411.000,1415.000,1433.000
1403.000,1407.000,1401.000
1415.000,1414.000,1394.000
1411.000,1424.000,1411.000
1407.000,1405.000,1396.000
1402.000,1393.000,1399.000
1398.000,1388.000,1407.000
1393.000,1397.000,1400.000
1395.000,1398.000,1388.000
1387.000,1389.000,1390.000
1379.000,1388.000,1379.000
1371.000,1375.000,1376.000
1382.000,1380.000,1377.000
1373.000,1380.000,1371.000
1387.000,1370.000,1363.000
1368.000,1368.000,1366.000
1371.000,1365.000,1375.000
1374.000,1366.000,1365.000
1358.000,1363.000,1361.000
1360.000,1362.000,1359.000
1358.000,1358.000,1355.000
1353.000,1351.000,1365.000
1342.000,1356.000,1345.000
1342.000,1357.000,1343.000
1342.000,1346.000,1359.000
1349.000,1345.000,1341.000
1346.000,1350.000,1342.000
1355.000,1332.000,1344.000
1332.000,1323.000,1333.000
1343.000,1342.000,1331.000
1342.000,1331.000,1339.000
1331.000,1340.000,1337.000
1334.000,1332.000,1320.000
1330.000,1337.000,1333.000
1328.000,1342.000,1338.000
1325.000,1325.000,1334.000
1337.000,1327.000,1335.000
1334.000,1330.000,1320.000
1336.000,1323.000,1319.000
1336.000,1332.000,1327.000
1318.000,1319.000,1320.000
1324.000,1326.000,1316.000
1321.000,1327.000,1319.000
1324.000,1317.000,1331.000
1321.000,1314.000,1311.000
1315.000,1322.000,1314.000
1311.000,1325.000,1316.000
1312.000,1314.000,1306.000
1313.000,1310.000,1303.000
1303.000,1312.000,1308.000
1315.000,1302.000,1323.000
1303.000,1295.000,1315.000
1310.000,1303.000,1306.000
1302.000,1309.000,1310.000
1304.000,1305.000,1304.000
1303.000,1300.000,1295.000
1302.000,1296.000,1305.000
1300.000,1299.000,1297.000
1306.000,1306.000,1304.000
1308.000,1300.000,1295.000
1299.000,1298.000,1293.000
1294.000,1295.000,1289.000
1294.000,1303.000,1291.000
1304.000,1302.000,1303.000
1294.000,1302.000,1294.000
1289.000,1293.000,1295.000
1301.000,1303.000,1287.000
1297.000,1295.000,1288.000
1299.000,1294.000,1291.000
1285.000,1294.000,1303.000
1294.000,1292.000,1283.000
1294.000,1284.000,1305.000
1298.000,1294.000,1304.000
1292.000,1290.000,1283.000
1288.000,1295.000,1285.000
1289.000,1288.000,1282.000
1300.000,1299.000,1287.000
1291.000,1288.000,1288.000
1293.000,1294.000,1280.000
1299.000,1291.000,1286.000
1301.000,1280.000,1288.000
1286.000,1280.000,1287.000
1288.000,1289.000,1290.000
1291.000,1279.000,1284.000
1289.000,1287.000,1288.000
1290.000,1287.000,1289.000
1287.000,1286.000,1293.000
1287.000,1288.000,1291.000
1301.000,1291.000,1295.000
1303.000,1301.000,1292.000
1293.000,1298.000,1287.000
1312.000,1291.000,1294.000
1304.000,1303.000,1302.000
1305.000,1296.000,1294.000
1295.000,1310.000,1294.000
1311.000,1308.000,1297.000
1313.000,1304.000,1308.000
1320.000,1318.000,1314.000
1328.000,1332.000,1326.000
1318.000,1329.000,1323.000
1326.000,1335.000,1336.000
1344.000,1334.000,1338.000
1368.000,1346.000,1363.000
1373.000,1371.000,1368.000
1370.000,1376.000,1371.000
1373.000,1390.000,1399.000
1414.000,1415.000,1402.000
1426.000,1427.000,1435.000
1468.000,1461.000,1461.000
1499.000,1509.000,1477.000
1544.000,1527.000,1521.000
1587.000,1583.000,1549.000
1631.000,1620.000,1632.000
1699.000,1718.000,1677.000
1779.000,1772.000,1757.000
1876.000,1850.000,1831.000
1943.000,1950.000,1925.000
2073.000,2069.000,2039.000
2181.000,2199.000,2189.000
2380.000,2379.000,2343.000
2534.000,2492.000,2467.000
2692.000,2669.000,2673.000
2886.000,2840.000,2837.000
3112.000,3058.000,3029.000
3301.000,3272.000,3248.000
3528.000,3458.000,3389.000
3707.000,3623.000,3632.000
3858.000,3784.000,3779.000
4115.000,4011.000,3901.000
4188.000,4142.000,4080.000
4279.000,4226.000,4219.000
4473.000,4368.000,4285.000
4495.000,4423.000,4397.000
4580.000,4485.000,4481.000
4662.000,4627.000,4457.000
4610.000,4645.000,4521.000
4705.000,4580.000,4521.000
4739.000,4579.000,4544.000
4652.000,4645.000,4601.000
4708.000,4616.000,4598.000
4670.000,4670.000,4605.000
4694.000,4629.000,4568.000
4718.000,4620.000,4525.000
4678.000,4601.000,4564.000
4694.000,4588.000,4587.000
4677.000,4629.000,4489.000
4725.000,4580.000,4501.000
4621.000,4516.000,4455.000
4682.000,4574.000,4460.000
4714.000,4578.000,4545.000
4641.000,4503.000,4504.000
4658.000,4605.000,4587.000
4593.000,4543.000,4477.000
4622.000,4553.000,4437.000
4686.000,4580.000,4511.000
4581.000,4551.000,4510.000
4579.000,4498.000,4450.000
4573.000,4634.000,4473.000
4569.000,4555.000,4445.000
4634.000,4572.000,4502.000
4616.000,4628.000,4520.000
4590.000,4596.000,4543.000
4620.000,4483.000,4507.000
4621.000,4549.000,4503.000
4627.000,4551.000,4530.000
4528.000,4611.000,4456.000
4651.000,4523.000,4472.000
4630.000,4523.000,4532.000
4630.000,4541.000,4445.000
4591.000,4614.000,4480.000
4557.000,4577.000,4534.000
4650.000,4548.000,4507.000
4570.000,4569.000,4480.000
4694.000,4487.000,4488.000
4654.000,4549.000,4423.000
4643.000,4564.000,4506.000
4673.000,4620.000,4535.000
4624.000,4569.000,4548.000
4645.000,4639.000,4539.000
4678.000,4591.000,4572.000
4662.000,4607.000,4531.000
4663.000,4622.000,4521.000
4710.000,4613.000,4585.000
4755.000,4656.000,4574.000
4691.000,4672.000,4631.000
4739.000,4644.000,4577.000
4835.000,4678.000,4619.000
4752.000,4633.000,4676.000
4686.000,4772.000,4632.000
4778.000,4656.000,4628.000
4830.000,4732.000,4622.000
4786.000,4756.000,4579.000
4767.000,4755.000,4672.000
4815.000,4697.000,4673.000
4749.000,4660.000,4652.000
4811.000,4763.000,4640.000
4852.000,4758.000,4721.000
4784.000,4707.000,4695.000
4913.000,4698.000,4738.000
4774.000,4741.000,4699.000
4843.000,4750.000,4652.000
4855.000,4750.000,4629.000
4805.000,4796.000,4747.000
4886.000,4773.000,4710.000
4935.000,4823.000,4713.000
4865.000,4785.000,4755.000
4893.000,4743.000,4765.000
4872.000,4815.000,4725.000
4892.000,4849.000,4663.000
4845.000,4788.000,4748.000
4885.000,4891.000,4690.000
4924.000,4868.000,4815.000
4978.000,4829.000,4796.000
4963.000,4907.000,4845.000
4981.000,4904.000,4782.000
5081.000,4936.000,4847.000
4988.000,4951.000,4835.000
5002.000,4910.000,4843.000
5028.000,4933.000,4889.000
5005.000,4976.000,4866.000
5004.000,4982.000,4858.000
5086.000,5020.000,4874.000
5035.000,4922.000,4902.000
5034.000,4947.000,4883.000
5037.000,4896.000,4811.000
5035.000,4986.000,4840.000
5079.000,4981.000,4993.000
5130.000,4924.000,4890.000
5025.000,4990.000,4887.000
5011.000,4939.000,4894.000
5050.000,4983.000,4888.000
5133.000,4989.000,4968.000
5043.000,4953.000,4965.000
5083.000,5002.000,4911.000
5075.000,5035.000,4924.000
5167.000,5083.000,4940.000
5168.000,5033.000,4970.000
5144.000,5065.000,4992.000
5140.000,5050.000,5028.000
5172.000,5112.000,5006.000
5227.000,5046.000,5010.000
5177.000,5129.000,5066.000
5234.000,5124.000,5047.000
5205.000,5103.000,5006.000
5200.000,5119.000,5015.000
5256.000,5145.000,5053.000
5262.000,5189.000,5163.000
5331.000,5228.000,5161.000
5287.000,5188.000,5171.000
5380.000,5195.000,5277.000
5384.000,5262.000,5243.000
5389.000,5323.000,5224.000
5531.000,5368.000,5360.000
5535.000,5446.000,5375.000
5607.000,5537.000,5456.000
5653.000,5578.000,5512.000
5680.000,5594.000,5564.000
5750.000,5673.000,5643.000
5811.000,5761.000,5630.000
5862.000,5836.000,5712.000
5896.000,5820.000,5738.000
5919.000,5864.000,5820.000
5939.000,5891.000,5783.000
6029.000,5894.000,5891.000
5927.000,5918.000,5787.000
5929.000,5877.000,5820.000
5939.000,5860.000,5796.000
5917.000,5767.000,5753.000
5845.000,5810.000,5704.000
5828.000,5748.000,5685.000
5738.000,5682.000,5648.000
5759.000,5681.000,5620.000
5658.000,5612.000,5546.000
5598.000,5557.000,5472.000
5603.000,5493.000,5443.000
5539.000,5457.000,5356.000
5505.000,5438.000,5334.000
5529.000,5374.000,5265.000
5434.000,5292.000,5306.000
5365.000,5372.000,5266.000
5375.000,5291.000,5277.000
5346.000,5238.000,5135.000
5305.000,5286.000,5173.000
5262.000,5211.000,5197.000
5248.000,5215.000,5193.000
5240.000,5193.000,5160.000
5217.000,5108.000,5128.000
5236.000,5210.000,5091.000
5167.000,5062.000,5049.000
5229.000,5133.000,5040.000
5275.000,5089.000,5157.000
5249.000,5100.000,5094.000
5198.000,5058.000,5044.000
5230.000,5044.000,5059.000
5163.000,5099.000,4984.000
5169.000,5081.000,5036.000
5161.000,5078.000,5046.000
5157.000,5132.000,4999.000
5137.000,5106.000,4998.000
5168.000,5098.000,5013.000
5227.000,5043.000,4997.000
5108.000,5124.000,4979.000
5259.000,5137.000,4990.000
5148.000,5130.000,5031.000
5227.000,5075.000,5024.000
5194.000,5084.000,5041.000
5225.000,5142.000,5051.000
5234.000,5068.000,5066.000
5167.000,5140.000,5026.000
5146.000,5144.000,4945.000
5238.000,5049.000,5057.000
5163.000,5177.000,5034.000
5134.000,5093.000,5072.000
5162.000,5116.000,5006.000
5179.000,5037.000,5004.000
5063.000,5040.000,4954.000
5016.000,5016.000,4892.000
4972.000,5005.000,4855.000
5078.000,4929.000,4882.000
5026.000,4951.000,4825.000
5090.000,4931.000,4868.000
5038.000,4898.000,4887.000
4947.000,4900.000,4786.000
4889.000,4826.000,4813.000
4975.000,4798.000,4804.000
4853.000,4818.000,4778.000
4918.000,4795.000,4764.000
4901.000,4849.000,4695.000
4866.000,4831.000,4780.000
4883.000,4738.000,4700.000
4896.000,4780.000,4732.000
4891.000,4811.000,4721.000
4863.000,4722.000,4708.000
4883.000,4750.000,4713.000
4853.000,4791.000,4618.000
4825.000,4773.000,4654.000
4838.000,4683.000,4716.000
4779.000,4769.000,4664.000
4826.000,4726.000,4708.000
4793.000,4736.000,4601.000
4830.000,4754.000,4624.000
4894.000,4677.000,4655.000
4798.000,4710.000,4627.000
4809.000,4695.000,4604.000
4736.000,4636.000,4569.000
4797.000,4710.000,4638.000
4733.000,4664.000,4575.000
4728.000,4692.000,4581.000
4766.000,4714.000,4594.000
4717.000,4648.000,4574.000
4739.000,4683.000,4643.000
4750.000,4652.000,4567.000
4743.000,4610.000,4549.000
4763.000,4643.000,4618.000
4687.000,4698.000,4639.000
4766.000,4777.000,4548.000
4693.000,4705.000,4625.000
4759.000,4691.000,4595.000
4772.000,4735.000,4576.000
4808.000,4697.000,4605.000
4761.000,4670.000,4593.000
4775.000,4685.000,4629.000
4763.000,4686.000,4605.000
4762.000,4666.000,4638.000
4708.000,4653.000,4604.000
4793.000,4658.000,4596.000
4760.000,4678.000,4626.000
4747.000,4683.000,4650.000
4781.000,4695.000,4604.000
4792.000,4706.000,4593.000
4764.000,4698.000,4661.000
4790.000,4719.000,4680.000
4806.000,4750.000,4674.000
4796.000,4706.000,4669.000
4816.000,4682.000,4640.000
4824.000,4767.000,4643.000
4836.000,4745.000,4683.000
4744.000,4681.000,4647.000
4848.000,4708.000,4633.000
4794.000,4688.000,4611.000
4819.000,4682.000,4584.000
4789.000,4710.000,4660.000
4821.000,4763.000,4631.000
4769.000,4717.000,4639.000
4805.000,4699.000,4640.000
4762.000,4688.000,4590.000
4746.000,4694.000,4673.000
4832.000,4706.000,4640.000
4748.000,4744.000,4654.000
4829.000,4675.000,4719.000
4812.000,4700.000,4659.000
4797.000,4706.000,4673.000
4807.000,4759.000,4682.000
4835.000,4775.000,4645.000
4871.000,4808.000,4667.000
4840.000,4758.000,4684.000
4783.000,4718.000,4598.000
4808.000,4786.000,4658.000
4827.000,4715.000,4602.000
4821.000,4701.000,4635.000
4783.000,4684.000,4613.000
4800.000,4668.000,4592.000
4791.000,4695.000,4641.000
4854.000,4610.000,4648.000
4783.000,4691.000,4592.000
4788.000,4638.000,4588.000
4793.000,4662.000,4537.000
4723.000,4638.000,4605.000
4742.000,4629.000,4610.000
4736.000,4710.000,4547.000
4809.000,4619.000,4595.000
4769.000,4614.000,4566.000
4772.000,4617.000,4572.000
4728.000,4682.000,4576.000
4717.000,4697.000,4580.000
4696.000,4638.000,4548.000
4674.000,4619.000,4546.000
4715.000,4545.000,4496.000
4727.000,4583.000,4545.000
4699.000,4648.000,4548.000
4724.000,4570.000,4577.000
4724.000,4644.000,4557.000
4698.000,4627.000,4567.000
4704.000,4660.000,4561.000
4725.000,4633.000,4565.000
4712.000,4581.000,4547.000
4669.000,4586.000,4581.000
4680.000,4689.000,4573.000
4697.000,4641.000,4569.000
4691.000,4655.000,4527.000
4723.000,4624.000,4539.000
4713.000,4631.000,4555.000
4743.000,4568.000,4541.000
4668.000,4633.000,4507.000
4701.000,4579.000,4490.000
4618.000,4617.000,4499.000
4624.000,4615.000,4490.000
4678.000,4568.000,4446.000
4678.000,4615.000,4512.000
4665.000,4616.000,4414.000
4679.000,4604.000,4448.000
4689.000,4537.000,4497.000
4694.000,4609.000,4499.000
4726.000,4592.000,4532.000
4695.000,4630.000,4535.000
4636.000,4582.000,4581.000
4700.000,4586.000,4525.000
4670.000,4660.000,4558.000
4697.000,4675.000,4546.000
4725.000,4599.000,4532.000
4693.000,4613.000,4566.000
4725.000,4555.000,4523.000
4660.000,4600.000,4492.000
4713.000,4536.000,4590.000
4694.000,4602.000,4507.000
4669.000,4658.000,4528.000
4733.000,4580.000,4593.000
4698.000,4609.000,4507.000
4651.000,4608.000,4498.000
4730.000,4615.000,4534.000
4734.000,4639.000,4477.000
4633.000,4621.000,4556.000
4681.000,4615.000,4567.000
4704.000,4660.000,4522.000
4654.000,4643.000,4547.000
4646.000,4616.000,4596.000
4751.000,4589.000,4565.000
4681.000,4561.000,4482.000
4649.000,4577.000,4551.000
4719.000,4583.000,4502.000
4683.000,4667.000,4496.000
4630.000,4569.000,4553.000
4648.000,4592.000,4522.000
4704.000,4550.000,4476.000
4614.000,4573.000,4556.000
4696.000,4605.000,4544.000
4647.000,4604.000,4556.000
4715.000,4553.000,4494.000
4690.000,4575.000,4486.000
4663.000,4631.000,4481.000
4691.000,4554.000,4509.000
4677.000,4551.000,4606.000
4673.000,4607.000,4510.000
4640.000,4653.000,4538.000
4726.000,4611.000,4554.000
4662.000,4627.000,4568.000
4664.000,4701.000,4509.000
4664.000,4591.000,4467.000
4677.000,4575.000,4546.000
4746.000,4513.000,4530.000
4678.000,4616.000,4559.000
4687.000,4607.000,4542.000
4701.000,4617.000,4574.000
4716.000,4594.000,4493.000
4666.000,4579.000,4557.000
4746.000,4570.000,4484.000
4727.000,4619.000,4564.000
4642.000,4564.000,4569.000
4702.000,4602.000,4472.000
4708.000,4576.000,4493.000
4619.000,4608.000,4568.000
4702.000,4623.000,4514.000
4711.000,4618.000,4525.000
4642.000,4602.000,4520.000
4670.000,4620.000,4554.000
4821.000,4654.000,4531.000
